# E (eV)   ldos(E)   pdos(E)   
  -6.115  0.308E-04  0.308E-04
  -6.105  0.480E-04  0.480E-04
  -6.095  0.740E-04  0.740E-04
  -6.085  0.113E-03  0.113E-03
  -6.075  0.171E-03  0.171E-03
  -6.065  0.255E-03  0.255E-03
  -6.055  0.378E-03  0.378E-03
  -6.045  0.553E-03  0.553E-03
  -6.035  0.801E-03  0.801E-03
  -6.025  0.115E-02  0.115E-02
  -6.015  0.163E-02  0.163E-02
  -6.005  0.229E-02  0.229E-02
  -5.995  0.318E-02  0.318E-02
  -5.985  0.438E-02  0.438E-02
  -5.975  0.595E-02  0.595E-02
  -5.965  0.802E-02  0.802E-02
  -5.955  0.107E-01  0.107E-01
  -5.945  0.141E-01  0.141E-01
  -5.935  0.184E-01  0.184E-01
  -5.925  0.238E-01  0.238E-01
  -5.915  0.305E-01  0.305E-01
  -5.905  0.386E-01  0.386E-01
  -5.895  0.484E-01  0.484E-01
  -5.885  0.600E-01  0.600E-01
  -5.875  0.737E-01  0.737E-01
  -5.865  0.896E-01  0.896E-01
  -5.855  0.108E+00  0.108E+00
  -5.845  0.129E+00  0.129E+00
  -5.835  0.152E+00  0.152E+00
  -5.825  0.177E+00  0.177E+00
  -5.815  0.205E+00  0.205E+00
  -5.805  0.235E+00  0.235E+00
  -5.795  0.267E+00  0.267E+00
  -5.785  0.300E+00  0.300E+00
  -5.775  0.335E+00  0.335E+00
  -5.765  0.369E+00  0.369E+00
  -5.755  0.404E+00  0.404E+00
  -5.745  0.438E+00  0.438E+00
  -5.735  0.471E+00  0.471E+00
  -5.725  0.501E+00  0.501E+00
  -5.715  0.530E+00  0.530E+00
  -5.705  0.555E+00  0.555E+00
  -5.695  0.577E+00  0.577E+00
  -5.685  0.596E+00  0.596E+00
  -5.675  0.610E+00  0.610E+00
  -5.665  0.620E+00  0.620E+00
  -5.655  0.626E+00  0.626E+00
  -5.645  0.629E+00  0.629E+00
  -5.635  0.627E+00  0.627E+00
  -5.625  0.622E+00  0.622E+00
  -5.615  0.613E+00  0.613E+00
  -5.605  0.602E+00  0.602E+00
  -5.595  0.589E+00  0.589E+00
  -5.585  0.573E+00  0.573E+00
  -5.575  0.556E+00  0.556E+00
  -5.565  0.538E+00  0.538E+00
  -5.555  0.519E+00  0.519E+00
  -5.545  0.500E+00  0.500E+00
  -5.535  0.481E+00  0.481E+00
  -5.525  0.463E+00  0.463E+00
  -5.515  0.445E+00  0.445E+00
  -5.505  0.428E+00  0.428E+00
  -5.495  0.412E+00  0.412E+00
  -5.485  0.398E+00  0.398E+00
  -5.475  0.385E+00  0.385E+00
  -5.465  0.372E+00  0.372E+00
  -5.455  0.361E+00  0.361E+00
  -5.445  0.351E+00  0.351E+00
  -5.435  0.343E+00  0.343E+00
  -5.425  0.334E+00  0.334E+00
  -5.415  0.327E+00  0.327E+00
  -5.405  0.320E+00  0.320E+00
  -5.395  0.313E+00  0.313E+00
  -5.385  0.307E+00  0.307E+00
  -5.375  0.301E+00  0.301E+00
  -5.365  0.294E+00  0.294E+00
  -5.355  0.288E+00  0.288E+00
  -5.345  0.281E+00  0.281E+00
  -5.335  0.275E+00  0.275E+00
  -5.325  0.268E+00  0.268E+00
  -5.315  0.261E+00  0.261E+00
  -5.305  0.255E+00  0.255E+00
  -5.295  0.248E+00  0.248E+00
  -5.285  0.242E+00  0.242E+00
  -5.275  0.235E+00  0.235E+00
  -5.265  0.230E+00  0.230E+00
  -5.255  0.225E+00  0.225E+00
  -5.245  0.220E+00  0.220E+00
  -5.235  0.216E+00  0.216E+00
  -5.225  0.213E+00  0.213E+00
  -5.215  0.210E+00  0.210E+00
  -5.205  0.208E+00  0.208E+00
  -5.195  0.207E+00  0.207E+00
  -5.185  0.207E+00  0.207E+00
  -5.175  0.207E+00  0.207E+00
  -5.165  0.207E+00  0.207E+00
  -5.155  0.208E+00  0.208E+00
  -5.145  0.209E+00  0.209E+00
  -5.135  0.210E+00  0.210E+00
  -5.125  0.210E+00  0.210E+00
  -5.115  0.211E+00  0.211E+00
  -5.105  0.211E+00  0.211E+00
  -5.095  0.211E+00  0.211E+00
  -5.085  0.210E+00  0.210E+00
  -5.075  0.209E+00  0.209E+00
  -5.065  0.207E+00  0.207E+00
  -5.055  0.204E+00  0.204E+00
  -5.045  0.201E+00  0.201E+00
  -5.035  0.196E+00  0.196E+00
  -5.025  0.192E+00  0.192E+00
  -5.015  0.186E+00  0.186E+00
  -5.005  0.180E+00  0.180E+00
  -4.995  0.174E+00  0.174E+00
  -4.985  0.168E+00  0.168E+00
  -4.975  0.162E+00  0.162E+00
  -4.965  0.156E+00  0.156E+00
  -4.955  0.150E+00  0.150E+00
  -4.945  0.145E+00  0.145E+00
  -4.935  0.140E+00  0.140E+00
  -4.925  0.136E+00  0.136E+00
  -4.915  0.134E+00  0.134E+00
  -4.905  0.132E+00  0.132E+00
  -4.895  0.131E+00  0.131E+00
  -4.885  0.131E+00  0.131E+00
  -4.875  0.132E+00  0.132E+00
  -4.865  0.134E+00  0.134E+00
  -4.855  0.137E+00  0.137E+00
  -4.845  0.141E+00  0.141E+00
  -4.835  0.146E+00  0.146E+00
  -4.825  0.150E+00  0.150E+00
  -4.815  0.156E+00  0.156E+00
  -4.805  0.161E+00  0.161E+00
  -4.795  0.166E+00  0.166E+00
  -4.785  0.171E+00  0.171E+00
  -4.775  0.176E+00  0.176E+00
  -4.765  0.179E+00  0.179E+00
  -4.755  0.182E+00  0.182E+00
  -4.745  0.184E+00  0.184E+00
  -4.735  0.185E+00  0.185E+00
  -4.725  0.184E+00  0.184E+00
  -4.715  0.183E+00  0.183E+00
  -4.705  0.180E+00  0.180E+00
  -4.695  0.175E+00  0.175E+00
  -4.685  0.170E+00  0.170E+00
  -4.675  0.164E+00  0.164E+00
  -4.665  0.157E+00  0.157E+00
  -4.655  0.149E+00  0.149E+00
  -4.645  0.140E+00  0.140E+00
  -4.635  0.132E+00  0.132E+00
  -4.625  0.123E+00  0.123E+00
  -4.615  0.114E+00  0.114E+00
  -4.605  0.106E+00  0.106E+00
  -4.595  0.988E-01  0.988E-01
  -4.585  0.921E-01  0.921E-01
  -4.575  0.865E-01  0.865E-01
  -4.565  0.819E-01  0.819E-01
  -4.555  0.787E-01  0.787E-01
  -4.545  0.767E-01  0.767E-01
  -4.535  0.762E-01  0.762E-01
  -4.525  0.770E-01  0.770E-01
  -4.515  0.792E-01  0.792E-01
  -4.505  0.827E-01  0.827E-01
  -4.495  0.874E-01  0.874E-01
  -4.485  0.932E-01  0.932E-01
  -4.475  0.999E-01  0.999E-01
  -4.465  0.107E+00  0.107E+00
  -4.455  0.115E+00  0.115E+00
  -4.445  0.124E+00  0.124E+00
  -4.435  0.133E+00  0.133E+00
  -4.425  0.141E+00  0.141E+00
  -4.415  0.149E+00  0.149E+00
  -4.405  0.157E+00  0.157E+00
  -4.395  0.164E+00  0.164E+00
  -4.385  0.170E+00  0.170E+00
  -4.375  0.175E+00  0.175E+00
  -4.365  0.178E+00  0.178E+00
  -4.355  0.180E+00  0.180E+00
  -4.345  0.181E+00  0.181E+00
  -4.335  0.180E+00  0.180E+00
  -4.325  0.178E+00  0.178E+00
  -4.315  0.174E+00  0.174E+00
  -4.305  0.168E+00  0.168E+00
  -4.295  0.162E+00  0.162E+00
  -4.285  0.154E+00  0.154E+00
  -4.275  0.145E+00  0.145E+00
  -4.265  0.136E+00  0.136E+00
  -4.255  0.126E+00  0.126E+00
  -4.245  0.116E+00  0.116E+00
  -4.235  0.105E+00  0.105E+00
  -4.225  0.954E-01  0.954E-01
  -4.215  0.858E-01  0.858E-01
  -4.205  0.767E-01  0.767E-01
  -4.195  0.684E-01  0.684E-01
  -4.185  0.611E-01  0.611E-01
  -4.175  0.548E-01  0.548E-01
  -4.165  0.497E-01  0.497E-01
  -4.155  0.458E-01  0.458E-01
  -4.145  0.432E-01  0.432E-01
  -4.135  0.421E-01  0.421E-01
  -4.125  0.422E-01  0.422E-01
  -4.115  0.438E-01  0.438E-01
  -4.105  0.468E-01  0.468E-01
  -4.095  0.511E-01  0.511E-01
  -4.085  0.567E-01  0.567E-01
  -4.075  0.635E-01  0.635E-01
  -4.065  0.714E-01  0.714E-01
  -4.055  0.802E-01  0.802E-01
  -4.045  0.899E-01  0.899E-01
  -4.035  0.100E+00  0.100E+00
  -4.025  0.111E+00  0.111E+00
  -4.015  0.122E+00  0.122E+00
  -4.005  0.133E+00  0.133E+00
  -3.995  0.143E+00  0.143E+00
  -3.985  0.153E+00  0.153E+00
  -3.975  0.162E+00  0.162E+00
  -3.965  0.170E+00  0.170E+00
  -3.955  0.177E+00  0.177E+00
  -3.945  0.182E+00  0.182E+00
  -3.935  0.185E+00  0.185E+00
  -3.925  0.186E+00  0.186E+00
  -3.915  0.186E+00  0.186E+00
  -3.905  0.184E+00  0.184E+00
  -3.895  0.180E+00  0.180E+00
  -3.885  0.175E+00  0.175E+00
  -3.875  0.168E+00  0.168E+00
  -3.865  0.159E+00  0.159E+00
  -3.855  0.150E+00  0.150E+00
  -3.845  0.140E+00  0.140E+00
  -3.835  0.129E+00  0.129E+00
  -3.825  0.118E+00  0.118E+00
  -3.815  0.107E+00  0.107E+00
  -3.805  0.962E-01  0.962E-01
  -3.795  0.858E-01  0.858E-01
  -3.785  0.760E-01  0.760E-01
  -3.775  0.669E-01  0.669E-01
  -3.765  0.588E-01  0.588E-01
  -3.755  0.517E-01  0.517E-01
  -3.745  0.458E-01  0.458E-01
  -3.735  0.410E-01  0.410E-01
  -3.725  0.374E-01  0.374E-01
  -3.715  0.352E-01  0.352E-01
  -3.705  0.342E-01  0.342E-01
  -3.695  0.345E-01  0.345E-01
  -3.685  0.361E-01  0.361E-01
  -3.675  0.390E-01  0.390E-01
  -3.665  0.432E-01  0.432E-01
  -3.655  0.486E-01  0.486E-01
  -3.645  0.552E-01  0.552E-01
  -3.635  0.629E-01  0.629E-01
  -3.625  0.717E-01  0.717E-01
  -3.615  0.813E-01  0.813E-01
  -3.605  0.917E-01  0.917E-01
  -3.595  0.103E+00  0.103E+00
  -3.585  0.114E+00  0.114E+00
  -3.575  0.126E+00  0.126E+00
  -3.565  0.137E+00  0.137E+00
  -3.555  0.149E+00  0.149E+00
  -3.545  0.160E+00  0.160E+00
  -3.535  0.170E+00  0.170E+00
  -3.525  0.180E+00  0.180E+00
  -3.515  0.188E+00  0.188E+00
  -3.505  0.196E+00  0.196E+00
  -3.495  0.201E+00  0.201E+00
  -3.485  0.206E+00  0.206E+00
  -3.475  0.209E+00  0.209E+00
  -3.465  0.211E+00  0.211E+00
  -3.455  0.211E+00  0.211E+00
  -3.445  0.210E+00  0.210E+00
  -3.435  0.208E+00  0.208E+00
  -3.425  0.204E+00  0.204E+00
  -3.415  0.199E+00  0.199E+00
  -3.405  0.194E+00  0.194E+00
  -3.395  0.187E+00  0.187E+00
  -3.385  0.180E+00  0.180E+00
  -3.375  0.173E+00  0.173E+00
  -3.365  0.164E+00  0.164E+00
  -3.355  0.156E+00  0.156E+00
  -3.345  0.147E+00  0.147E+00
  -3.335  0.138E+00  0.138E+00
  -3.325  0.129E+00  0.129E+00
  -3.315  0.121E+00  0.121E+00
  -3.305  0.112E+00  0.112E+00
  -3.295  0.103E+00  0.103E+00
  -3.285  0.952E-01  0.952E-01
  -3.275  0.875E-01  0.875E-01
  -3.265  0.804E-01  0.804E-01
  -3.255  0.738E-01  0.738E-01
  -3.245  0.679E-01  0.679E-01
  -3.235  0.628E-01  0.628E-01
  -3.225  0.585E-01  0.585E-01
  -3.215  0.550E-01  0.550E-01
  -3.205  0.524E-01  0.524E-01
  -3.195  0.506E-01  0.506E-01
  -3.185  0.496E-01  0.496E-01
  -3.175  0.494E-01  0.494E-01
  -3.165  0.499E-01  0.499E-01
  -3.155  0.510E-01  0.510E-01
  -3.145  0.526E-01  0.526E-01
  -3.135  0.545E-01  0.545E-01
  -3.125  0.567E-01  0.567E-01
  -3.115  0.590E-01  0.590E-01
  -3.105  0.614E-01  0.614E-01
  -3.095  0.636E-01  0.636E-01
  -3.085  0.657E-01  0.657E-01
  -3.075  0.674E-01  0.674E-01
  -3.065  0.689E-01  0.689E-01
  -3.055  0.700E-01  0.700E-01
  -3.045  0.708E-01  0.708E-01
  -3.035  0.712E-01  0.712E-01
  -3.025  0.713E-01  0.713E-01
  -3.015  0.711E-01  0.711E-01
  -3.005  0.708E-01  0.708E-01
  -2.995  0.703E-01  0.703E-01
  -2.985  0.698E-01  0.698E-01
  -2.975  0.692E-01  0.692E-01
  -2.965  0.687E-01  0.687E-01
  -2.955  0.683E-01  0.683E-01
  -2.945  0.680E-01  0.680E-01
  -2.935  0.679E-01  0.679E-01
  -2.925  0.678E-01  0.678E-01
  -2.915  0.678E-01  0.678E-01
  -2.905  0.678E-01  0.678E-01
  -2.895  0.678E-01  0.678E-01
  -2.885  0.677E-01  0.677E-01
  -2.875  0.675E-01  0.675E-01
  -2.865  0.672E-01  0.672E-01
  -2.855  0.668E-01  0.668E-01
  -2.845  0.661E-01  0.661E-01
  -2.835  0.653E-01  0.653E-01
  -2.825  0.644E-01  0.644E-01
  -2.815  0.634E-01  0.634E-01
  -2.805  0.624E-01  0.624E-01
  -2.795  0.614E-01  0.614E-01
  -2.785  0.605E-01  0.605E-01
  -2.775  0.597E-01  0.597E-01
  -2.765  0.592E-01  0.592E-01
  -2.755  0.589E-01  0.589E-01
  -2.745  0.589E-01  0.589E-01
  -2.735  0.592E-01  0.592E-01
  -2.725  0.598E-01  0.598E-01
  -2.715  0.606E-01  0.606E-01
  -2.705  0.616E-01  0.616E-01
  -2.695  0.627E-01  0.627E-01
  -2.685  0.638E-01  0.638E-01
  -2.675  0.649E-01  0.649E-01
  -2.665  0.658E-01  0.658E-01
  -2.655  0.664E-01  0.664E-01
  -2.645  0.667E-01  0.667E-01
  -2.635  0.665E-01  0.665E-01
  -2.625  0.659E-01  0.659E-01
  -2.615  0.648E-01  0.648E-01
  -2.605  0.632E-01  0.632E-01
  -2.595  0.611E-01  0.611E-01
  -2.585  0.585E-01  0.585E-01
  -2.575  0.555E-01  0.555E-01
  -2.565  0.522E-01  0.522E-01
  -2.555  0.486E-01  0.486E-01
  -2.545  0.449E-01  0.449E-01
  -2.535  0.412E-01  0.412E-01
  -2.525  0.375E-01  0.375E-01
  -2.515  0.340E-01  0.340E-01
  -2.505  0.307E-01  0.307E-01
  -2.495  0.278E-01  0.278E-01
  -2.485  0.253E-01  0.253E-01
  -2.475  0.234E-01  0.234E-01
  -2.465  0.221E-01  0.221E-01
  -2.455  0.215E-01  0.215E-01
  -2.445  0.217E-01  0.217E-01
  -2.435  0.227E-01  0.227E-01
  -2.425  0.246E-01  0.246E-01
  -2.415  0.275E-01  0.275E-01
  -2.405  0.314E-01  0.314E-01
  -2.395  0.364E-01  0.364E-01
  -2.385  0.425E-01  0.425E-01
  -2.375  0.499E-01  0.499E-01
  -2.365  0.585E-01  0.585E-01
  -2.355  0.683E-01  0.683E-01
  -2.345  0.794E-01  0.794E-01
  -2.335  0.917E-01  0.917E-01
  -2.325  0.105E+00  0.105E+00
  -2.315  0.120E+00  0.120E+00
  -2.305  0.136E+00  0.136E+00
  -2.295  0.152E+00  0.152E+00
  -2.285  0.170E+00  0.170E+00
  -2.275  0.188E+00  0.188E+00
  -2.265  0.206E+00  0.206E+00
  -2.255  0.225E+00  0.225E+00
  -2.245  0.243E+00  0.243E+00
  -2.235  0.261E+00  0.261E+00
  -2.225  0.279E+00  0.279E+00
  -2.215  0.296E+00  0.296E+00
  -2.205  0.312E+00  0.312E+00
  -2.195  0.327E+00  0.327E+00
  -2.185  0.341E+00  0.341E+00
  -2.175  0.352E+00  0.352E+00
  -2.165  0.362E+00  0.362E+00
  -2.155  0.371E+00  0.371E+00
  -2.145  0.377E+00  0.377E+00
  -2.135  0.381E+00  0.381E+00
  -2.125  0.384E+00  0.384E+00
  -2.115  0.384E+00  0.384E+00
  -2.105  0.383E+00  0.383E+00
  -2.095  0.380E+00  0.380E+00
  -2.085  0.375E+00  0.375E+00
  -2.075  0.369E+00  0.369E+00
  -2.065  0.361E+00  0.361E+00
  -2.055  0.353E+00  0.353E+00
  -2.045  0.344E+00  0.344E+00
  -2.035  0.334E+00  0.334E+00
  -2.025  0.323E+00  0.323E+00
  -2.015  0.312E+00  0.312E+00
  -2.005  0.301E+00  0.301E+00
  -1.995  0.289E+00  0.289E+00
  -1.985  0.278E+00  0.278E+00
  -1.975  0.267E+00  0.267E+00
  -1.965  0.255E+00  0.255E+00
  -1.955  0.244E+00  0.244E+00
  -1.945  0.233E+00  0.233E+00
  -1.935  0.222E+00  0.222E+00
  -1.925  0.211E+00  0.211E+00
  -1.915  0.201E+00  0.201E+00
  -1.905  0.191E+00  0.191E+00
  -1.895  0.181E+00  0.181E+00
  -1.885  0.171E+00  0.171E+00
  -1.875  0.162E+00  0.162E+00
  -1.865  0.153E+00  0.153E+00
  -1.855  0.144E+00  0.144E+00
  -1.845  0.136E+00  0.136E+00
  -1.835  0.129E+00  0.129E+00
  -1.825  0.122E+00  0.122E+00
  -1.815  0.116E+00  0.116E+00
  -1.805  0.110E+00  0.110E+00
  -1.795  0.105E+00  0.105E+00
  -1.785  0.101E+00  0.101E+00
  -1.775  0.966E-01  0.966E-01
  -1.765  0.932E-01  0.932E-01
  -1.755  0.903E-01  0.903E-01
  -1.745  0.879E-01  0.879E-01
  -1.735  0.861E-01  0.861E-01
  -1.725  0.847E-01  0.847E-01
  -1.715  0.837E-01  0.837E-01
  -1.705  0.833E-01  0.833E-01
  -1.695  0.833E-01  0.833E-01
  -1.685  0.838E-01  0.838E-01
  -1.675  0.847E-01  0.847E-01
  -1.665  0.862E-01  0.862E-01
  -1.655  0.880E-01  0.880E-01
  -1.645  0.903E-01  0.903E-01
  -1.635  0.929E-01  0.929E-01
  -1.625  0.958E-01  0.958E-01
  -1.615  0.989E-01  0.989E-01
  -1.605  0.102E+00  0.102E+00
  -1.595  0.105E+00  0.105E+00
  -1.585  0.108E+00  0.108E+00
  -1.575  0.110E+00  0.110E+00
  -1.565  0.112E+00  0.112E+00
  -1.555  0.114E+00  0.114E+00
  -1.545  0.115E+00  0.115E+00
  -1.535  0.115E+00  0.115E+00
  -1.525  0.114E+00  0.114E+00
  -1.515  0.113E+00  0.113E+00
  -1.505  0.111E+00  0.111E+00
  -1.495  0.108E+00  0.108E+00
  -1.485  0.105E+00  0.105E+00
  -1.475  0.101E+00  0.101E+00
  -1.465  0.971E-01  0.971E-01
  -1.455  0.930E-01  0.930E-01
  -1.445  0.890E-01  0.890E-01
  -1.435  0.850E-01  0.850E-01
  -1.425  0.814E-01  0.814E-01
  -1.415  0.780E-01  0.780E-01
  -1.405  0.750E-01  0.750E-01
  -1.395  0.725E-01  0.725E-01
  -1.385  0.703E-01  0.703E-01
  -1.375  0.685E-01  0.685E-01
  -1.365  0.671E-01  0.671E-01
  -1.355  0.660E-01  0.660E-01
  -1.345  0.650E-01  0.650E-01
  -1.335  0.642E-01  0.642E-01
  -1.325  0.634E-01  0.634E-01
  -1.315  0.626E-01  0.626E-01
  -1.305  0.617E-01  0.617E-01
  -1.295  0.608E-01  0.608E-01
  -1.285  0.597E-01  0.597E-01
  -1.275  0.586E-01  0.586E-01
  -1.265  0.573E-01  0.573E-01
  -1.255  0.561E-01  0.561E-01
  -1.245  0.549E-01  0.549E-01
  -1.235  0.538E-01  0.538E-01
  -1.225  0.529E-01  0.529E-01
  -1.215  0.522E-01  0.522E-01
  -1.205  0.518E-01  0.518E-01
  -1.195  0.518E-01  0.518E-01
  -1.185  0.522E-01  0.522E-01
  -1.175  0.530E-01  0.530E-01
  -1.165  0.543E-01  0.543E-01
  -1.155  0.560E-01  0.560E-01
  -1.145  0.580E-01  0.580E-01
  -1.135  0.605E-01  0.605E-01
  -1.125  0.633E-01  0.633E-01
  -1.115  0.663E-01  0.663E-01
  -1.105  0.696E-01  0.696E-01
  -1.095  0.731E-01  0.731E-01
  -1.085  0.767E-01  0.767E-01
  -1.075  0.804E-01  0.804E-01
  -1.065  0.843E-01  0.843E-01
  -1.055  0.883E-01  0.883E-01
  -1.045  0.924E-01  0.924E-01
  -1.035  0.967E-01  0.967E-01
  -1.025  0.101E+00  0.101E+00
  -1.015  0.106E+00  0.106E+00
  -1.005  0.111E+00  0.111E+00
  -0.995  0.116E+00  0.116E+00
  -0.985  0.122E+00  0.122E+00
  -0.975  0.128E+00  0.128E+00
  -0.965  0.135E+00  0.135E+00
  -0.955  0.142E+00  0.142E+00
  -0.945  0.149E+00  0.149E+00
  -0.935  0.157E+00  0.157E+00
  -0.925  0.165E+00  0.165E+00
  -0.915  0.173E+00  0.173E+00
  -0.905  0.182E+00  0.182E+00
  -0.895  0.191E+00  0.191E+00
  -0.885  0.200E+00  0.200E+00
  -0.875  0.209E+00  0.209E+00
  -0.865  0.218E+00  0.218E+00
  -0.855  0.226E+00  0.226E+00
  -0.845  0.235E+00  0.235E+00
  -0.835  0.243E+00  0.243E+00
  -0.825  0.250E+00  0.250E+00
  -0.815  0.258E+00  0.258E+00
  -0.805  0.265E+00  0.265E+00
  -0.795  0.271E+00  0.271E+00
  -0.785  0.277E+00  0.277E+00
  -0.775  0.283E+00  0.283E+00
  -0.765  0.288E+00  0.288E+00
  -0.755  0.292E+00  0.292E+00
  -0.745  0.296E+00  0.296E+00
  -0.735  0.299E+00  0.299E+00
  -0.725  0.301E+00  0.301E+00
  -0.715  0.302E+00  0.302E+00
  -0.705  0.303E+00  0.303E+00
  -0.695  0.302E+00  0.302E+00
  -0.685  0.301E+00  0.301E+00
  -0.675  0.298E+00  0.298E+00
  -0.665  0.294E+00  0.294E+00
  -0.655  0.289E+00  0.289E+00
  -0.645  0.282E+00  0.282E+00
  -0.635  0.274E+00  0.274E+00
  -0.625  0.265E+00  0.265E+00
  -0.615  0.254E+00  0.254E+00
  -0.605  0.243E+00  0.243E+00
  -0.595  0.230E+00  0.230E+00
  -0.585  0.217E+00  0.217E+00
  -0.575  0.204E+00  0.204E+00
  -0.565  0.190E+00  0.190E+00
  -0.555  0.175E+00  0.175E+00
  -0.545  0.161E+00  0.161E+00
  -0.535  0.148E+00  0.148E+00
  -0.525  0.134E+00  0.134E+00
  -0.515  0.121E+00  0.121E+00
  -0.505  0.109E+00  0.109E+00
  -0.495  0.983E-01  0.983E-01
  -0.485  0.881E-01  0.881E-01
  -0.475  0.788E-01  0.788E-01
  -0.465  0.707E-01  0.707E-01
  -0.455  0.636E-01  0.636E-01
  -0.445  0.575E-01  0.575E-01
  -0.435  0.525E-01  0.525E-01
  -0.425  0.485E-01  0.485E-01
  -0.415  0.454E-01  0.454E-01
  -0.405  0.431E-01  0.431E-01
  -0.395  0.417E-01  0.417E-01
  -0.385  0.409E-01  0.409E-01
  -0.375  0.407E-01  0.407E-01
  -0.365  0.410E-01  0.410E-01
  -0.355  0.417E-01  0.417E-01
  -0.345  0.426E-01  0.426E-01
  -0.335  0.436E-01  0.436E-01
  -0.325  0.447E-01  0.447E-01
  -0.315  0.457E-01  0.457E-01
  -0.305  0.466E-01  0.466E-01
  -0.295  0.473E-01  0.473E-01
  -0.285  0.478E-01  0.478E-01
  -0.275  0.481E-01  0.481E-01
  -0.265  0.481E-01  0.481E-01
  -0.255  0.478E-01  0.478E-01
  -0.245  0.474E-01  0.474E-01
  -0.235  0.468E-01  0.468E-01
  -0.225  0.461E-01  0.461E-01
  -0.215  0.454E-01  0.454E-01
  -0.205  0.447E-01  0.447E-01
  -0.195  0.442E-01  0.442E-01
  -0.185  0.438E-01  0.438E-01
  -0.175  0.438E-01  0.438E-01
  -0.165  0.440E-01  0.440E-01
  -0.155  0.445E-01  0.445E-01
  -0.145  0.454E-01  0.454E-01
  -0.135  0.467E-01  0.467E-01
  -0.125  0.482E-01  0.482E-01
  -0.115  0.501E-01  0.501E-01
  -0.105  0.522E-01  0.522E-01
  -0.095  0.545E-01  0.545E-01
  -0.085  0.569E-01  0.569E-01
  -0.075  0.595E-01  0.595E-01
  -0.065  0.620E-01  0.620E-01
  -0.055  0.646E-01  0.646E-01
  -0.045  0.670E-01  0.670E-01
  -0.035  0.694E-01  0.694E-01
  -0.025  0.716E-01  0.716E-01
  -0.015  0.737E-01  0.737E-01
  -0.005  0.757E-01  0.757E-01
   0.005  0.774E-01  0.774E-01
   0.015  0.790E-01  0.790E-01
   0.025  0.804E-01  0.804E-01
   0.035  0.816E-01  0.816E-01
   0.045  0.825E-01  0.825E-01
   0.055  0.833E-01  0.833E-01
   0.065  0.838E-01  0.838E-01
   0.075  0.839E-01  0.839E-01
   0.085  0.838E-01  0.838E-01
   0.095  0.833E-01  0.833E-01
   0.105  0.824E-01  0.824E-01
   0.115  0.811E-01  0.811E-01
   0.125  0.793E-01  0.793E-01
   0.135  0.772E-01  0.772E-01
   0.145  0.745E-01  0.745E-01
   0.155  0.715E-01  0.715E-01
   0.165  0.680E-01  0.680E-01
   0.175  0.643E-01  0.643E-01
   0.185  0.602E-01  0.602E-01
   0.195  0.559E-01  0.559E-01
   0.205  0.515E-01  0.515E-01
   0.215  0.470E-01  0.470E-01
   0.225  0.425E-01  0.425E-01
   0.235  0.381E-01  0.381E-01
   0.245  0.338E-01  0.338E-01
   0.255  0.297E-01  0.297E-01
   0.265  0.259E-01  0.259E-01
   0.275  0.223E-01  0.223E-01
   0.285  0.191E-01  0.191E-01
   0.295  0.162E-01  0.162E-01
   0.305  0.136E-01  0.136E-01
   0.315  0.113E-01  0.113E-01
