# E (eV)   ldos(E)   pdos(E)   
  -6.332  0.308E-04  0.308E-04
  -6.322  0.481E-04  0.481E-04
  -6.312  0.742E-04  0.742E-04
  -6.302  0.113E-03  0.113E-03
  -6.292  0.171E-03  0.171E-03
  -6.282  0.256E-03  0.256E-03
  -6.272  0.379E-03  0.379E-03
  -6.262  0.554E-03  0.554E-03
  -6.252  0.803E-03  0.803E-03
  -6.242  0.115E-02  0.115E-02
  -6.232  0.163E-02  0.163E-02
  -6.222  0.229E-02  0.229E-02
  -6.212  0.319E-02  0.319E-02
  -6.202  0.439E-02  0.439E-02
  -6.192  0.597E-02  0.597E-02
  -6.182  0.804E-02  0.804E-02
  -6.172  0.107E-01  0.107E-01
  -6.162  0.141E-01  0.141E-01
  -6.152  0.185E-01  0.185E-01
  -6.142  0.239E-01  0.239E-01
  -6.132  0.305E-01  0.305E-01
  -6.122  0.387E-01  0.387E-01
  -6.112  0.485E-01  0.485E-01
  -6.102  0.602E-01  0.602E-01
  -6.092  0.739E-01  0.739E-01
  -6.082  0.899E-01  0.899E-01
  -6.072  0.108E+00  0.108E+00
  -6.062  0.129E+00  0.129E+00
  -6.052  0.152E+00  0.152E+00
  -6.042  0.178E+00  0.178E+00
  -6.032  0.206E+00  0.206E+00
  -6.022  0.236E+00  0.236E+00
  -6.012  0.268E+00  0.268E+00
  -6.002  0.301E+00  0.301E+00
  -5.992  0.336E+00  0.336E+00
  -5.982  0.370E+00  0.370E+00
  -5.972  0.405E+00  0.405E+00
  -5.962  0.439E+00  0.439E+00
  -5.952  0.472E+00  0.472E+00
  -5.942  0.503E+00  0.503E+00
  -5.932  0.531E+00  0.531E+00
  -5.922  0.557E+00  0.557E+00
  -5.912  0.579E+00  0.579E+00
  -5.902  0.597E+00  0.597E+00
  -5.892  0.612E+00  0.612E+00
  -5.882  0.622E+00  0.622E+00
  -5.872  0.628E+00  0.628E+00
  -5.862  0.631E+00  0.631E+00
  -5.852  0.629E+00  0.629E+00
  -5.842  0.624E+00  0.624E+00
  -5.832  0.615E+00  0.615E+00
  -5.822  0.604E+00  0.604E+00
  -5.812  0.591E+00  0.591E+00
  -5.802  0.575E+00  0.575E+00
  -5.792  0.558E+00  0.558E+00
  -5.782  0.540E+00  0.540E+00
  -5.772  0.521E+00  0.521E+00
  -5.762  0.502E+00  0.502E+00
  -5.752  0.483E+00  0.483E+00
  -5.742  0.465E+00  0.465E+00
  -5.732  0.447E+00  0.447E+00
  -5.722  0.430E+00  0.430E+00
  -5.712  0.415E+00  0.415E+00
  -5.702  0.400E+00  0.400E+00
  -5.692  0.387E+00  0.387E+00
  -5.682  0.375E+00  0.375E+00
  -5.672  0.364E+00  0.364E+00
  -5.662  0.354E+00  0.354E+00
  -5.652  0.345E+00  0.345E+00
  -5.642  0.337E+00  0.337E+00
  -5.632  0.329E+00  0.329E+00
  -5.622  0.322E+00  0.322E+00
  -5.612  0.315E+00  0.315E+00
  -5.602  0.309E+00  0.309E+00
  -5.592  0.302E+00  0.302E+00
  -5.582  0.296E+00  0.296E+00
  -5.572  0.289E+00  0.289E+00
  -5.562  0.283E+00  0.283E+00
  -5.552  0.276E+00  0.276E+00
  -5.542  0.269E+00  0.269E+00
  -5.532  0.262E+00  0.262E+00
  -5.522  0.255E+00  0.255E+00
  -5.512  0.249E+00  0.249E+00
  -5.502  0.242E+00  0.242E+00
  -5.492  0.236E+00  0.236E+00
  -5.482  0.231E+00  0.231E+00
  -5.472  0.226E+00  0.226E+00
  -5.462  0.222E+00  0.222E+00
  -5.452  0.218E+00  0.218E+00
  -5.442  0.215E+00  0.215E+00
  -5.432  0.213E+00  0.213E+00
  -5.422  0.211E+00  0.211E+00
  -5.412  0.210E+00  0.210E+00
  -5.402  0.210E+00  0.210E+00
  -5.392  0.210E+00  0.210E+00
  -5.382  0.210E+00  0.210E+00
  -5.372  0.211E+00  0.211E+00
  -5.362  0.212E+00  0.212E+00
  -5.352  0.213E+00  0.213E+00
  -5.342  0.213E+00  0.213E+00
  -5.332  0.214E+00  0.214E+00
  -5.322  0.214E+00  0.214E+00
  -5.312  0.213E+00  0.213E+00
  -5.302  0.212E+00  0.212E+00
  -5.292  0.210E+00  0.210E+00
  -5.282  0.208E+00  0.208E+00
  -5.272  0.205E+00  0.205E+00
  -5.262  0.201E+00  0.201E+00
  -5.252  0.196E+00  0.196E+00
  -5.242  0.191E+00  0.191E+00
  -5.232  0.185E+00  0.185E+00
  -5.222  0.179E+00  0.179E+00
  -5.212  0.173E+00  0.173E+00
  -5.202  0.167E+00  0.167E+00
  -5.192  0.161E+00  0.161E+00
  -5.182  0.155E+00  0.155E+00
  -5.172  0.149E+00  0.149E+00
  -5.162  0.144E+00  0.144E+00
  -5.152  0.140E+00  0.140E+00
  -5.142  0.137E+00  0.137E+00
  -5.132  0.135E+00  0.135E+00
  -5.122  0.134E+00  0.134E+00
  -5.112  0.133E+00  0.133E+00
  -5.102  0.134E+00  0.134E+00
  -5.092  0.136E+00  0.136E+00
  -5.082  0.139E+00  0.139E+00
  -5.072  0.143E+00  0.143E+00
  -5.062  0.147E+00  0.147E+00
  -5.052  0.152E+00  0.152E+00
  -5.042  0.157E+00  0.157E+00
  -5.032  0.162E+00  0.162E+00
  -5.022  0.168E+00  0.168E+00
  -5.012  0.173E+00  0.173E+00
  -5.002  0.177E+00  0.177E+00
  -4.992  0.181E+00  0.181E+00
  -4.982  0.184E+00  0.184E+00
  -4.972  0.186E+00  0.186E+00
  -4.962  0.187E+00  0.187E+00
  -4.952  0.187E+00  0.187E+00
  -4.942  0.185E+00  0.185E+00
  -4.932  0.182E+00  0.182E+00
  -4.922  0.178E+00  0.178E+00
  -4.912  0.173E+00  0.173E+00
  -4.902  0.167E+00  0.167E+00
  -4.892  0.159E+00  0.159E+00
  -4.882  0.152E+00  0.152E+00
  -4.872  0.143E+00  0.143E+00
  -4.862  0.134E+00  0.134E+00
  -4.852  0.126E+00  0.126E+00
  -4.842  0.117E+00  0.117E+00
  -4.832  0.109E+00  0.109E+00
  -4.822  0.101E+00  0.101E+00
  -4.812  0.946E-01  0.946E-01
  -4.802  0.888E-01  0.888E-01
  -4.792  0.842E-01  0.842E-01
  -4.782  0.809E-01  0.809E-01
  -4.772  0.790E-01  0.790E-01
  -4.762  0.784E-01  0.784E-01
  -4.752  0.793E-01  0.793E-01
  -4.742  0.815E-01  0.815E-01
  -4.732  0.851E-01  0.851E-01
  -4.722  0.900E-01  0.900E-01
  -4.712  0.959E-01  0.959E-01
  -4.702  0.103E+00  0.103E+00
  -4.692  0.111E+00  0.111E+00
  -4.682  0.119E+00  0.119E+00
  -4.672  0.127E+00  0.127E+00
  -4.662  0.136E+00  0.136E+00
  -4.652  0.145E+00  0.145E+00
  -4.642  0.153E+00  0.153E+00
  -4.632  0.161E+00  0.161E+00
  -4.622  0.168E+00  0.168E+00
  -4.612  0.174E+00  0.174E+00
  -4.602  0.178E+00  0.178E+00
  -4.592  0.181E+00  0.181E+00
  -4.582  0.183E+00  0.183E+00
  -4.572  0.184E+00  0.184E+00
  -4.562  0.182E+00  0.182E+00
  -4.552  0.179E+00  0.179E+00
  -4.542  0.175E+00  0.175E+00
  -4.532  0.169E+00  0.169E+00
  -4.522  0.162E+00  0.162E+00
  -4.512  0.154E+00  0.154E+00
  -4.502  0.145E+00  0.145E+00
  -4.492  0.135E+00  0.135E+00
  -4.482  0.125E+00  0.125E+00
  -4.472  0.114E+00  0.114E+00
  -4.462  0.104E+00  0.104E+00
  -4.452  0.940E-01  0.940E-01
  -4.442  0.844E-01  0.844E-01
  -4.432  0.754E-01  0.754E-01
  -4.422  0.674E-01  0.674E-01
  -4.412  0.603E-01  0.603E-01
  -4.402  0.544E-01  0.544E-01
  -4.392  0.497E-01  0.497E-01
  -4.382  0.463E-01  0.463E-01
  -4.372  0.443E-01  0.443E-01
  -4.362  0.437E-01  0.437E-01
  -4.352  0.446E-01  0.446E-01
  -4.342  0.469E-01  0.469E-01
  -4.332  0.506E-01  0.506E-01
  -4.322  0.556E-01  0.556E-01
  -4.312  0.620E-01  0.620E-01
  -4.302  0.695E-01  0.695E-01
  -4.292  0.782E-01  0.782E-01
  -4.282  0.877E-01  0.877E-01
  -4.272  0.980E-01  0.980E-01
  -4.262  0.109E+00  0.109E+00
  -4.252  0.120E+00  0.120E+00
  -4.242  0.131E+00  0.131E+00
  -4.232  0.142E+00  0.142E+00
  -4.222  0.152E+00  0.152E+00
  -4.212  0.162E+00  0.162E+00
  -4.202  0.170E+00  0.170E+00
  -4.192  0.178E+00  0.178E+00
  -4.182  0.183E+00  0.183E+00
  -4.172  0.187E+00  0.187E+00
  -4.162  0.189E+00  0.189E+00
  -4.152  0.190E+00  0.190E+00
  -4.142  0.188E+00  0.188E+00
  -4.132  0.184E+00  0.184E+00
  -4.122  0.179E+00  0.179E+00
  -4.112  0.172E+00  0.172E+00
  -4.102  0.164E+00  0.164E+00
  -4.092  0.155E+00  0.155E+00
  -4.082  0.145E+00  0.145E+00
  -4.072  0.134E+00  0.134E+00
  -4.062  0.123E+00  0.123E+00
  -4.052  0.111E+00  0.111E+00
  -4.042  0.100E+00  0.100E+00
  -4.032  0.895E-01  0.895E-01
  -4.022  0.794E-01  0.794E-01
  -4.012  0.701E-01  0.701E-01
  -4.002  0.618E-01  0.618E-01
  -3.992  0.546E-01  0.546E-01
  -3.982  0.485E-01  0.485E-01
  -3.972  0.437E-01  0.437E-01
  -3.962  0.402E-01  0.402E-01
  -3.952  0.381E-01  0.381E-01
  -3.942  0.372E-01  0.372E-01
  -3.932  0.378E-01  0.378E-01
  -3.922  0.397E-01  0.397E-01
  -3.912  0.429E-01  0.429E-01
  -3.902  0.475E-01  0.475E-01
  -3.892  0.532E-01  0.532E-01
  -3.882  0.602E-01  0.602E-01
  -3.872  0.683E-01  0.683E-01
  -3.862  0.773E-01  0.773E-01
  -3.852  0.872E-01  0.872E-01
  -3.842  0.979E-01  0.979E-01
  -3.832  0.109E+00  0.109E+00
  -3.822  0.121E+00  0.121E+00
  -3.812  0.132E+00  0.132E+00
  -3.802  0.144E+00  0.144E+00
  -3.792  0.155E+00  0.155E+00
  -3.782  0.166E+00  0.166E+00
  -3.772  0.176E+00  0.176E+00
  -3.762  0.185E+00  0.185E+00
  -3.752  0.194E+00  0.194E+00
  -3.742  0.201E+00  0.201E+00
  -3.732  0.206E+00  0.206E+00
  -3.722  0.211E+00  0.211E+00
  -3.712  0.213E+00  0.213E+00
  -3.702  0.215E+00  0.215E+00
  -3.692  0.215E+00  0.215E+00
  -3.682  0.214E+00  0.214E+00
  -3.672  0.211E+00  0.211E+00
  -3.662  0.207E+00  0.207E+00
  -3.652  0.202E+00  0.202E+00
  -3.642  0.196E+00  0.196E+00
  -3.632  0.189E+00  0.189E+00
  -3.622  0.181E+00  0.181E+00
  -3.612  0.173E+00  0.173E+00
  -3.602  0.164E+00  0.164E+00
  -3.592  0.155E+00  0.155E+00
  -3.582  0.145E+00  0.145E+00
  -3.572  0.136E+00  0.136E+00
  -3.562  0.126E+00  0.126E+00
  -3.552  0.117E+00  0.117E+00
  -3.542  0.107E+00  0.107E+00
  -3.532  0.983E-01  0.983E-01
  -3.522  0.898E-01  0.898E-01
  -3.512  0.820E-01  0.820E-01
  -3.502  0.748E-01  0.748E-01
  -3.492  0.684E-01  0.684E-01
  -3.482  0.628E-01  0.628E-01
  -3.472  0.582E-01  0.582E-01
  -3.462  0.544E-01  0.544E-01
  -3.452  0.516E-01  0.516E-01
  -3.442  0.497E-01  0.497E-01
  -3.432  0.486E-01  0.486E-01
  -3.422  0.484E-01  0.484E-01
  -3.412  0.489E-01  0.489E-01
  -3.402  0.500E-01  0.500E-01
  -3.392  0.516E-01  0.516E-01
  -3.382  0.537E-01  0.537E-01
  -3.372  0.559E-01  0.559E-01
  -3.362  0.584E-01  0.584E-01
  -3.352  0.608E-01  0.608E-01
  -3.342  0.631E-01  0.631E-01
  -3.332  0.652E-01  0.652E-01
  -3.322  0.670E-01  0.670E-01
  -3.312  0.684E-01  0.684E-01
  -3.302  0.695E-01  0.695E-01
  -3.292  0.703E-01  0.703E-01
  -3.282  0.706E-01  0.706E-01
  -3.272  0.706E-01  0.706E-01
  -3.262  0.704E-01  0.704E-01
  -3.252  0.699E-01  0.699E-01
  -3.242  0.693E-01  0.693E-01
  -3.232  0.687E-01  0.687E-01
  -3.222  0.681E-01  0.681E-01
  -3.212  0.675E-01  0.675E-01
  -3.202  0.671E-01  0.671E-01
  -3.192  0.668E-01  0.668E-01
  -3.182  0.667E-01  0.667E-01
  -3.172  0.667E-01  0.667E-01
  -3.162  0.669E-01  0.669E-01
  -3.152  0.671E-01  0.671E-01
  -3.142  0.674E-01  0.674E-01
  -3.132  0.677E-01  0.677E-01
  -3.122  0.679E-01  0.679E-01
  -3.112  0.681E-01  0.681E-01
  -3.102  0.681E-01  0.681E-01
  -3.092  0.680E-01  0.680E-01
  -3.082  0.677E-01  0.677E-01
  -3.072  0.673E-01  0.673E-01
  -3.062  0.667E-01  0.667E-01
  -3.052  0.661E-01  0.661E-01
  -3.042  0.655E-01  0.655E-01
  -3.032  0.650E-01  0.650E-01
  -3.022  0.645E-01  0.645E-01
  -3.012  0.642E-01  0.642E-01
  -3.002  0.640E-01  0.640E-01
  -2.992  0.641E-01  0.641E-01
  -2.982  0.643E-01  0.643E-01
  -2.972  0.648E-01  0.648E-01
  -2.962  0.654E-01  0.654E-01
  -2.952  0.662E-01  0.662E-01
  -2.942  0.670E-01  0.670E-01
  -2.932  0.677E-01  0.677E-01
  -2.922  0.683E-01  0.683E-01
  -2.912  0.687E-01  0.687E-01
  -2.902  0.689E-01  0.689E-01
  -2.892  0.686E-01  0.686E-01
  -2.882  0.679E-01  0.679E-01
  -2.872  0.668E-01  0.668E-01
  -2.862  0.652E-01  0.652E-01
  -2.852  0.631E-01  0.631E-01
  -2.842  0.605E-01  0.605E-01
  -2.832  0.576E-01  0.576E-01
  -2.822  0.543E-01  0.543E-01
  -2.812  0.507E-01  0.507E-01
  -2.802  0.470E-01  0.470E-01
  -2.792  0.432E-01  0.432E-01
  -2.782  0.394E-01  0.394E-01
  -2.772  0.358E-01  0.358E-01
  -2.762  0.324E-01  0.324E-01
  -2.752  0.293E-01  0.293E-01
  -2.742  0.267E-01  0.267E-01
  -2.732  0.246E-01  0.246E-01
  -2.722  0.231E-01  0.231E-01
  -2.712  0.222E-01  0.222E-01
  -2.702  0.222E-01  0.222E-01
  -2.692  0.229E-01  0.229E-01
  -2.682  0.246E-01  0.246E-01
  -2.672  0.272E-01  0.272E-01
  -2.662  0.308E-01  0.308E-01
  -2.652  0.355E-01  0.355E-01
  -2.642  0.414E-01  0.414E-01
  -2.632  0.485E-01  0.485E-01
  -2.622  0.568E-01  0.568E-01
  -2.612  0.664E-01  0.664E-01
  -2.602  0.773E-01  0.773E-01
  -2.592  0.894E-01  0.894E-01
  -2.582  0.103E+00  0.103E+00
  -2.572  0.117E+00  0.117E+00
  -2.562  0.133E+00  0.133E+00
  -2.552  0.150E+00  0.150E+00
  -2.542  0.167E+00  0.167E+00
  -2.532  0.186E+00  0.186E+00
  -2.522  0.204E+00  0.204E+00
  -2.512  0.223E+00  0.223E+00
  -2.502  0.242E+00  0.242E+00
  -2.492  0.261E+00  0.261E+00
  -2.482  0.280E+00  0.280E+00
  -2.472  0.297E+00  0.297E+00
  -2.462  0.314E+00  0.314E+00
  -2.452  0.329E+00  0.329E+00
  -2.442  0.343E+00  0.343E+00
  -2.432  0.356E+00  0.356E+00
  -2.422  0.367E+00  0.367E+00
  -2.412  0.375E+00  0.375E+00
  -2.402  0.382E+00  0.382E+00
  -2.392  0.387E+00  0.387E+00
  -2.382  0.389E+00  0.389E+00
  -2.372  0.390E+00  0.390E+00
  -2.362  0.389E+00  0.389E+00
  -2.352  0.386E+00  0.386E+00
  -2.342  0.381E+00  0.381E+00
  -2.332  0.375E+00  0.375E+00
  -2.322  0.367E+00  0.367E+00
  -2.312  0.358E+00  0.358E+00
  -2.302  0.349E+00  0.349E+00
  -2.292  0.338E+00  0.338E+00
  -2.282  0.327E+00  0.327E+00
  -2.272  0.316E+00  0.316E+00
  -2.262  0.304E+00  0.304E+00
  -2.252  0.292E+00  0.292E+00
  -2.242  0.280E+00  0.280E+00
  -2.232  0.269E+00  0.269E+00
  -2.222  0.257E+00  0.257E+00
  -2.212  0.245E+00  0.245E+00
  -2.202  0.234E+00  0.234E+00
  -2.192  0.223E+00  0.223E+00
  -2.182  0.212E+00  0.212E+00
  -2.172  0.201E+00  0.201E+00
  -2.162  0.191E+00  0.191E+00
  -2.152  0.180E+00  0.180E+00
  -2.142  0.171E+00  0.171E+00
  -2.132  0.161E+00  0.161E+00
  -2.122  0.152E+00  0.152E+00
  -2.112  0.144E+00  0.144E+00
  -2.102  0.136E+00  0.136E+00
  -2.092  0.128E+00  0.128E+00
  -2.082  0.121E+00  0.121E+00
  -2.072  0.115E+00  0.115E+00
  -2.062  0.110E+00  0.110E+00
  -2.052  0.105E+00  0.105E+00
  -2.042  0.100E+00  0.100E+00
  -2.032  0.965E-01  0.965E-01
  -2.022  0.932E-01  0.932E-01
  -2.012  0.905E-01  0.905E-01
  -2.002  0.883E-01  0.883E-01
  -1.992  0.865E-01  0.865E-01
  -1.982  0.852E-01  0.852E-01
  -1.972  0.844E-01  0.844E-01
  -1.962  0.840E-01  0.840E-01
  -1.952  0.840E-01  0.840E-01
  -1.942  0.845E-01  0.845E-01
  -1.932  0.854E-01  0.854E-01
  -1.922  0.867E-01  0.867E-01
  -1.912  0.885E-01  0.885E-01
  -1.902  0.907E-01  0.907E-01
  -1.892  0.933E-01  0.933E-01
  -1.882  0.961E-01  0.961E-01
  -1.872  0.992E-01  0.992E-01
  -1.862  0.102E+00  0.102E+00
  -1.852  0.105E+00  0.105E+00
  -1.842  0.108E+00  0.108E+00
  -1.832  0.111E+00  0.111E+00
  -1.822  0.113E+00  0.113E+00
  -1.812  0.115E+00  0.115E+00
  -1.802  0.116E+00  0.116E+00
  -1.792  0.117E+00  0.117E+00
  -1.782  0.116E+00  0.116E+00
  -1.772  0.115E+00  0.115E+00
  -1.762  0.114E+00  0.114E+00
  -1.752  0.111E+00  0.111E+00
  -1.742  0.108E+00  0.108E+00
  -1.732  0.105E+00  0.105E+00
  -1.722  0.101E+00  0.101E+00
  -1.712  0.968E-01  0.968E-01
  -1.702  0.927E-01  0.927E-01
  -1.692  0.887E-01  0.887E-01
  -1.682  0.849E-01  0.849E-01
  -1.672  0.814E-01  0.814E-01
  -1.662  0.782E-01  0.782E-01
  -1.652  0.754E-01  0.754E-01
  -1.642  0.731E-01  0.731E-01
  -1.632  0.711E-01  0.711E-01
  -1.622  0.695E-01  0.695E-01
  -1.612  0.681E-01  0.681E-01
  -1.602  0.670E-01  0.670E-01
  -1.592  0.661E-01  0.661E-01
  -1.582  0.652E-01  0.652E-01
  -1.572  0.643E-01  0.643E-01
  -1.562  0.634E-01  0.634E-01
  -1.552  0.624E-01  0.624E-01
  -1.542  0.614E-01  0.614E-01
  -1.532  0.602E-01  0.602E-01
  -1.522  0.590E-01  0.590E-01
  -1.512  0.578E-01  0.578E-01
  -1.502  0.566E-01  0.566E-01
  -1.492  0.555E-01  0.555E-01
  -1.482  0.546E-01  0.546E-01
  -1.472  0.540E-01  0.540E-01
  -1.462  0.536E-01  0.536E-01
  -1.452  0.536E-01  0.536E-01
  -1.442  0.539E-01  0.539E-01
  -1.432  0.547E-01  0.547E-01
  -1.422  0.559E-01  0.559E-01
  -1.412  0.575E-01  0.575E-01
  -1.402  0.595E-01  0.595E-01
  -1.392  0.619E-01  0.619E-01
  -1.382  0.645E-01  0.645E-01
  -1.372  0.674E-01  0.674E-01
  -1.362  0.706E-01  0.706E-01
  -1.352  0.740E-01  0.740E-01
  -1.342  0.775E-01  0.775E-01
  -1.332  0.812E-01  0.812E-01
  -1.322  0.850E-01  0.850E-01
  -1.312  0.889E-01  0.889E-01
  -1.302  0.930E-01  0.930E-01
  -1.292  0.973E-01  0.973E-01
  -1.282  0.102E+00  0.102E+00
  -1.272  0.107E+00  0.107E+00
  -1.262  0.112E+00  0.112E+00
  -1.252  0.117E+00  0.117E+00
  -1.242  0.123E+00  0.123E+00
  -1.232  0.129E+00  0.129E+00
  -1.222  0.136E+00  0.136E+00
  -1.212  0.143E+00  0.143E+00
  -1.202  0.150E+00  0.150E+00
  -1.192  0.158E+00  0.158E+00
  -1.182  0.166E+00  0.166E+00
  -1.172  0.174E+00  0.174E+00
  -1.162  0.183E+00  0.183E+00
  -1.152  0.191E+00  0.191E+00
  -1.142  0.200E+00  0.200E+00
  -1.132  0.208E+00  0.208E+00
  -1.122  0.217E+00  0.217E+00
  -1.112  0.225E+00  0.225E+00
  -1.102  0.234E+00  0.234E+00
  -1.092  0.242E+00  0.242E+00
  -1.082  0.250E+00  0.250E+00
  -1.072  0.257E+00  0.257E+00
  -1.062  0.264E+00  0.264E+00
  -1.052  0.271E+00  0.271E+00
  -1.042  0.278E+00  0.278E+00
  -1.032  0.284E+00  0.284E+00
  -1.022  0.290E+00  0.290E+00
  -1.012  0.296E+00  0.296E+00
  -1.002  0.300E+00  0.300E+00
  -0.992  0.304E+00  0.304E+00
  -0.982  0.307E+00  0.307E+00
  -0.972  0.309E+00  0.309E+00
  -0.962  0.310E+00  0.310E+00
  -0.952  0.310E+00  0.310E+00
  -0.942  0.308E+00  0.308E+00
  -0.932  0.305E+00  0.305E+00
  -0.922  0.300E+00  0.300E+00
  -0.912  0.293E+00  0.293E+00
  -0.902  0.285E+00  0.285E+00
  -0.892  0.276E+00  0.276E+00
  -0.882  0.265E+00  0.265E+00
  -0.872  0.253E+00  0.253E+00
  -0.862  0.240E+00  0.240E+00
  -0.852  0.227E+00  0.227E+00
  -0.842  0.212E+00  0.212E+00
  -0.832  0.198E+00  0.198E+00
  -0.822  0.183E+00  0.183E+00
  -0.812  0.168E+00  0.168E+00
  -0.802  0.154E+00  0.154E+00
  -0.792  0.141E+00  0.141E+00
  -0.782  0.128E+00  0.128E+00
  -0.772  0.116E+00  0.116E+00
  -0.762  0.105E+00  0.105E+00
  -0.752  0.950E-01  0.950E-01
  -0.742  0.861E-01  0.861E-01
  -0.732  0.784E-01  0.784E-01
  -0.722  0.717E-01  0.717E-01
  -0.712  0.660E-01  0.660E-01
  -0.702  0.613E-01  0.613E-01
  -0.692  0.574E-01  0.574E-01
  -0.682  0.544E-01  0.544E-01
  -0.672  0.521E-01  0.521E-01
  -0.662  0.505E-01  0.505E-01
  -0.652  0.494E-01  0.494E-01
  -0.642  0.488E-01  0.488E-01
  -0.632  0.487E-01  0.487E-01
  -0.622  0.488E-01  0.488E-01
  -0.612  0.492E-01  0.492E-01
  -0.602  0.497E-01  0.497E-01
  -0.592  0.503E-01  0.503E-01
  -0.582  0.510E-01  0.510E-01
  -0.572  0.515E-01  0.515E-01
  -0.562  0.520E-01  0.520E-01
  -0.552  0.523E-01  0.523E-01
  -0.542  0.524E-01  0.524E-01
  -0.532  0.523E-01  0.523E-01
  -0.522  0.521E-01  0.521E-01
  -0.512  0.516E-01  0.516E-01
  -0.502  0.511E-01  0.511E-01
  -0.492  0.504E-01  0.504E-01
  -0.482  0.497E-01  0.497E-01
  -0.472  0.490E-01  0.490E-01
  -0.462  0.483E-01  0.483E-01
  -0.452  0.478E-01  0.478E-01
  -0.442  0.475E-01  0.475E-01
  -0.432  0.474E-01  0.474E-01
  -0.422  0.476E-01  0.476E-01
  -0.412  0.480E-01  0.480E-01
  -0.402  0.487E-01  0.487E-01
  -0.392  0.497E-01  0.497E-01
  -0.382  0.509E-01  0.509E-01
  -0.372  0.522E-01  0.522E-01
  -0.362  0.537E-01  0.537E-01
  -0.352  0.553E-01  0.553E-01
  -0.342  0.568E-01  0.568E-01
  -0.332  0.584E-01  0.584E-01
  -0.322  0.599E-01  0.599E-01
  -0.312  0.614E-01  0.614E-01
  -0.302  0.627E-01  0.627E-01
  -0.292  0.640E-01  0.640E-01
  -0.282  0.651E-01  0.651E-01
  -0.272  0.662E-01  0.662E-01
  -0.262  0.673E-01  0.673E-01
  -0.252  0.683E-01  0.683E-01
  -0.242  0.694E-01  0.694E-01
  -0.232  0.705E-01  0.705E-01
  -0.222  0.716E-01  0.716E-01
  -0.212  0.728E-01  0.728E-01
  -0.202  0.741E-01  0.741E-01
  -0.192  0.753E-01  0.753E-01
  -0.182  0.765E-01  0.765E-01
  -0.172  0.775E-01  0.775E-01
  -0.162  0.784E-01  0.784E-01
  -0.152  0.790E-01  0.790E-01
  -0.142  0.793E-01  0.793E-01
  -0.132  0.791E-01  0.791E-01
  -0.122  0.785E-01  0.785E-01
  -0.112  0.774E-01  0.774E-01
  -0.102  0.757E-01  0.757E-01
  -0.092  0.735E-01  0.735E-01
  -0.082  0.707E-01  0.707E-01
  -0.072  0.675E-01  0.675E-01
  -0.062  0.638E-01  0.638E-01
  -0.052  0.598E-01  0.598E-01
  -0.042  0.555E-01  0.555E-01
  -0.032  0.509E-01  0.509E-01
  -0.022  0.463E-01  0.463E-01
  -0.012  0.417E-01  0.417E-01
  -0.002  0.372E-01  0.372E-01
   0.008  0.328E-01  0.328E-01
   0.018  0.286E-01  0.286E-01
   0.028  0.248E-01  0.248E-01
   0.038  0.212E-01  0.212E-01
   0.048  0.180E-01  0.180E-01
   0.058  0.151E-01  0.151E-01
   0.068  0.126E-01  0.126E-01
   0.078  0.105E-01  0.105E-01
   0.088  0.873E-02  0.873E-02
   0.098  0.730E-02  0.730E-02
