# E (eV)   ldos(E)   pdos(E)   
  -5.983  0.525E-04  0.525E-04
  -5.973  0.816E-04  0.816E-04
  -5.963  0.126E-03  0.126E-03
  -5.953  0.191E-03  0.191E-03
  -5.943  0.288E-03  0.288E-03
  -5.933  0.430E-03  0.430E-03
  -5.923  0.634E-03  0.634E-03
  -5.913  0.926E-03  0.926E-03
  -5.903  0.134E-02  0.134E-02
  -5.893  0.191E-02  0.191E-02
  -5.883  0.271E-02  0.271E-02
  -5.873  0.379E-02  0.379E-02
  -5.863  0.525E-02  0.525E-02
  -5.853  0.719E-02  0.719E-02
  -5.843  0.976E-02  0.976E-02
  -5.833  0.131E-01  0.131E-01
  -5.823  0.174E-01  0.174E-01
  -5.813  0.229E-01  0.229E-01
  -5.803  0.298E-01  0.298E-01
  -5.793  0.383E-01  0.383E-01
  -5.783  0.489E-01  0.489E-01
  -5.773  0.616E-01  0.616E-01
  -5.763  0.769E-01  0.769E-01
  -5.753  0.951E-01  0.951E-01
  -5.743  0.116E+00  0.116E+00
  -5.733  0.141E+00  0.141E+00
  -5.723  0.169E+00  0.169E+00
  -5.713  0.200E+00  0.200E+00
  -5.703  0.235E+00  0.235E+00
  -5.693  0.273E+00  0.273E+00
  -5.683  0.315E+00  0.315E+00
  -5.673  0.359E+00  0.359E+00
  -5.663  0.406E+00  0.406E+00
  -5.653  0.454E+00  0.454E+00
  -5.643  0.503E+00  0.503E+00
  -5.633  0.552E+00  0.552E+00
  -5.623  0.600E+00  0.600E+00
  -5.613  0.646E+00  0.646E+00
  -5.603  0.690E+00  0.690E+00
  -5.593  0.731E+00  0.731E+00
  -5.583  0.767E+00  0.767E+00
  -5.573  0.799E+00  0.799E+00
  -5.563  0.825E+00  0.825E+00
  -5.553  0.845E+00  0.845E+00
  -5.543  0.859E+00  0.859E+00
  -5.533  0.868E+00  0.868E+00
  -5.523  0.870E+00  0.870E+00
  -5.513  0.866E+00  0.866E+00
  -5.503  0.857E+00  0.857E+00
  -5.493  0.844E+00  0.844E+00
  -5.483  0.826E+00  0.826E+00
  -5.473  0.804E+00  0.804E+00
  -5.463  0.779E+00  0.779E+00
  -5.453  0.752E+00  0.752E+00
  -5.443  0.724E+00  0.724E+00
  -5.433  0.694E+00  0.694E+00
  -5.423  0.665E+00  0.665E+00
  -5.413  0.636E+00  0.636E+00
  -5.403  0.607E+00  0.607E+00
  -5.393  0.580E+00  0.580E+00
  -5.383  0.555E+00  0.555E+00
  -5.373  0.532E+00  0.532E+00
  -5.363  0.511E+00  0.511E+00
  -5.353  0.492E+00  0.492E+00
  -5.343  0.475E+00  0.475E+00
  -5.333  0.461E+00  0.461E+00
  -5.323  0.448E+00  0.448E+00
  -5.313  0.437E+00  0.437E+00
  -5.303  0.427E+00  0.427E+00
  -5.293  0.418E+00  0.418E+00
  -5.283  0.409E+00  0.409E+00
  -5.273  0.401E+00  0.401E+00
  -5.263  0.392E+00  0.392E+00
  -5.253  0.382E+00  0.382E+00
  -5.243  0.372E+00  0.372E+00
  -5.233  0.362E+00  0.362E+00
  -5.223  0.350E+00  0.350E+00
  -5.213  0.338E+00  0.338E+00
  -5.203  0.325E+00  0.325E+00
  -5.193  0.312E+00  0.312E+00
  -5.183  0.300E+00  0.300E+00
  -5.173  0.288E+00  0.288E+00
  -5.163  0.277E+00  0.277E+00
  -5.153  0.268E+00  0.268E+00
  -5.143  0.260E+00  0.260E+00
  -5.133  0.254E+00  0.254E+00
  -5.123  0.251E+00  0.251E+00
  -5.113  0.249E+00  0.249E+00
  -5.103  0.250E+00  0.250E+00
  -5.093  0.252E+00  0.252E+00
  -5.083  0.257E+00  0.257E+00
  -5.073  0.262E+00  0.262E+00
  -5.063  0.268E+00  0.268E+00
  -5.053  0.275E+00  0.275E+00
  -5.043  0.281E+00  0.281E+00
  -5.033  0.286E+00  0.286E+00
  -5.023  0.291E+00  0.291E+00
  -5.013  0.293E+00  0.293E+00
  -5.003  0.294E+00  0.294E+00
  -4.993  0.293E+00  0.293E+00
  -4.983  0.289E+00  0.289E+00
  -4.973  0.283E+00  0.283E+00
  -4.963  0.274E+00  0.274E+00
  -4.953  0.264E+00  0.264E+00
  -4.943  0.252E+00  0.252E+00
  -4.933  0.239E+00  0.239E+00
  -4.923  0.224E+00  0.224E+00
  -4.913  0.209E+00  0.209E+00
  -4.903  0.195E+00  0.195E+00
  -4.893  0.181E+00  0.181E+00
  -4.883  0.168E+00  0.168E+00
  -4.873  0.157E+00  0.157E+00
  -4.863  0.147E+00  0.147E+00
  -4.853  0.140E+00  0.140E+00
  -4.843  0.135E+00  0.135E+00
  -4.833  0.132E+00  0.132E+00
  -4.823  0.133E+00  0.133E+00
  -4.813  0.135E+00  0.135E+00
  -4.803  0.141E+00  0.141E+00
  -4.793  0.148E+00  0.148E+00
  -4.783  0.158E+00  0.158E+00
  -4.773  0.168E+00  0.168E+00
  -4.763  0.181E+00  0.181E+00
  -4.753  0.193E+00  0.193E+00
  -4.743  0.206E+00  0.206E+00
  -4.733  0.219E+00  0.219E+00
  -4.723  0.230E+00  0.230E+00
  -4.713  0.241E+00  0.241E+00
  -4.703  0.250E+00  0.250E+00
  -4.693  0.256E+00  0.256E+00
  -4.683  0.260E+00  0.260E+00
  -4.673  0.262E+00  0.262E+00
  -4.663  0.261E+00  0.261E+00
  -4.653  0.257E+00  0.257E+00
  -4.643  0.251E+00  0.251E+00
  -4.633  0.242E+00  0.242E+00
  -4.623  0.231E+00  0.231E+00
  -4.613  0.219E+00  0.219E+00
  -4.603  0.204E+00  0.204E+00
  -4.593  0.189E+00  0.189E+00
  -4.583  0.174E+00  0.174E+00
  -4.573  0.158E+00  0.158E+00
  -4.563  0.142E+00  0.142E+00
  -4.553  0.127E+00  0.127E+00
  -4.543  0.114E+00  0.114E+00
  -4.533  0.101E+00  0.101E+00
  -4.523  0.899E-01  0.899E-01
  -4.513  0.805E-01  0.805E-01
  -4.503  0.731E-01  0.731E-01
  -4.493  0.677E-01  0.677E-01
  -4.483  0.643E-01  0.643E-01
  -4.473  0.632E-01  0.632E-01
  -4.463  0.642E-01  0.642E-01
  -4.453  0.673E-01  0.673E-01
  -4.443  0.724E-01  0.724E-01
  -4.433  0.795E-01  0.795E-01
  -4.423  0.884E-01  0.884E-01
  -4.413  0.990E-01  0.990E-01
  -4.403  0.111E+00  0.111E+00
  -4.393  0.124E+00  0.124E+00
  -4.383  0.138E+00  0.138E+00
  -4.373  0.153E+00  0.153E+00
  -4.363  0.167E+00  0.167E+00
  -4.353  0.182E+00  0.182E+00
  -4.343  0.195E+00  0.195E+00
  -4.333  0.208E+00  0.208E+00
  -4.323  0.219E+00  0.219E+00
  -4.313  0.229E+00  0.229E+00
  -4.303  0.236E+00  0.236E+00
  -4.293  0.241E+00  0.241E+00
  -4.283  0.243E+00  0.243E+00
  -4.273  0.243E+00  0.243E+00
  -4.263  0.240E+00  0.240E+00
  -4.253  0.235E+00  0.235E+00
  -4.243  0.227E+00  0.227E+00
  -4.233  0.217E+00  0.217E+00
  -4.223  0.206E+00  0.206E+00
  -4.213  0.193E+00  0.193E+00
  -4.203  0.179E+00  0.179E+00
  -4.193  0.164E+00  0.164E+00
  -4.183  0.149E+00  0.149E+00
  -4.173  0.133E+00  0.133E+00
  -4.163  0.118E+00  0.118E+00
  -4.153  0.104E+00  0.104E+00
  -4.143  0.908E-01  0.908E-01
  -4.133  0.785E-01  0.785E-01
  -4.123  0.673E-01  0.673E-01
  -4.113  0.574E-01  0.574E-01
  -4.103  0.490E-01  0.490E-01
  -4.093  0.419E-01  0.419E-01
  -4.083  0.362E-01  0.362E-01
  -4.073  0.320E-01  0.320E-01
  -4.063  0.292E-01  0.292E-01
  -4.053  0.278E-01  0.278E-01
  -4.043  0.278E-01  0.278E-01
  -4.033  0.292E-01  0.292E-01
  -4.023  0.320E-01  0.320E-01
  -4.013  0.361E-01  0.361E-01
  -4.003  0.417E-01  0.417E-01
  -3.993  0.486E-01  0.486E-01
  -3.983  0.569E-01  0.569E-01
  -3.973  0.665E-01  0.665E-01
  -3.963  0.773E-01  0.773E-01
  -3.953  0.892E-01  0.892E-01
  -3.943  0.102E+00  0.102E+00
  -3.933  0.116E+00  0.116E+00
  -3.923  0.130E+00  0.130E+00
  -3.913  0.144E+00  0.144E+00
  -3.903  0.158E+00  0.158E+00
  -3.893  0.172E+00  0.172E+00
  -3.883  0.185E+00  0.185E+00
  -3.873  0.197E+00  0.197E+00
  -3.863  0.208E+00  0.208E+00
  -3.853  0.216E+00  0.216E+00
  -3.843  0.223E+00  0.223E+00
  -3.833  0.227E+00  0.227E+00
  -3.823  0.229E+00  0.229E+00
  -3.813  0.229E+00  0.229E+00
  -3.803  0.226E+00  0.226E+00
  -3.793  0.221E+00  0.221E+00
  -3.783  0.213E+00  0.213E+00
  -3.773  0.204E+00  0.204E+00
  -3.763  0.192E+00  0.192E+00
  -3.753  0.180E+00  0.180E+00
  -3.743  0.166E+00  0.166E+00
  -3.733  0.152E+00  0.152E+00
  -3.723  0.138E+00  0.138E+00
  -3.713  0.123E+00  0.123E+00
  -3.703  0.109E+00  0.109E+00
  -3.693  0.959E-01  0.959E-01
  -3.683  0.832E-01  0.832E-01
  -3.673  0.714E-01  0.714E-01
  -3.663  0.606E-01  0.606E-01
  -3.653  0.510E-01  0.510E-01
  -3.643  0.425E-01  0.425E-01
  -3.633  0.351E-01  0.351E-01
  -3.623  0.289E-01  0.289E-01
  -3.613  0.236E-01  0.236E-01
  -3.603  0.194E-01  0.194E-01
  -3.593  0.161E-01  0.161E-01
  -3.583  0.137E-01  0.137E-01
  -3.573  0.121E-01  0.121E-01
  -3.563  0.114E-01  0.114E-01
  -3.553  0.114E-01  0.114E-01
  -3.543  0.121E-01  0.121E-01
  -3.533  0.137E-01  0.137E-01
  -3.523  0.161E-01  0.161E-01
  -3.513  0.194E-01  0.194E-01
  -3.503  0.235E-01  0.235E-01
  -3.493  0.287E-01  0.287E-01
  -3.483  0.348E-01  0.348E-01
  -3.473  0.421E-01  0.421E-01
  -3.463  0.504E-01  0.504E-01
  -3.453  0.598E-01  0.598E-01
  -3.443  0.702E-01  0.702E-01
  -3.433  0.816E-01  0.816E-01
  -3.423  0.939E-01  0.939E-01
  -3.413  0.107E+00  0.107E+00
  -3.403  0.120E+00  0.120E+00
  -3.393  0.134E+00  0.134E+00
  -3.383  0.148E+00  0.148E+00
  -3.373  0.161E+00  0.161E+00
  -3.363  0.174E+00  0.174E+00
  -3.353  0.186E+00  0.186E+00
  -3.343  0.196E+00  0.196E+00
  -3.333  0.205E+00  0.205E+00
  -3.323  0.211E+00  0.211E+00
  -3.313  0.216E+00  0.216E+00
  -3.303  0.218E+00  0.218E+00
  -3.293  0.218E+00  0.218E+00
  -3.283  0.216E+00  0.216E+00
  -3.273  0.212E+00  0.212E+00
  -3.263  0.205E+00  0.205E+00
  -3.253  0.196E+00  0.196E+00
  -3.243  0.186E+00  0.186E+00
  -3.233  0.174E+00  0.174E+00
  -3.223  0.162E+00  0.162E+00
  -3.213  0.148E+00  0.148E+00
  -3.203  0.135E+00  0.135E+00
  -3.193  0.121E+00  0.121E+00
  -3.183  0.107E+00  0.107E+00
  -3.173  0.942E-01  0.942E-01
  -3.163  0.819E-01  0.819E-01
  -3.153  0.704E-01  0.704E-01
  -3.143  0.599E-01  0.599E-01
  -3.133  0.504E-01  0.504E-01
  -3.123  0.420E-01  0.420E-01
  -3.113  0.346E-01  0.346E-01
  -3.103  0.282E-01  0.282E-01
  -3.093  0.228E-01  0.228E-01
  -3.083  0.182E-01  0.182E-01
  -3.073  0.145E-01  0.145E-01
  -3.063  0.114E-01  0.114E-01
  -3.053  0.902E-02  0.902E-02
  -3.043  0.719E-02  0.719E-02
  -3.033  0.585E-02  0.585E-02
  -3.023  0.496E-02  0.496E-02
  -3.013  0.449E-02  0.449E-02
  -3.003  0.441E-02  0.441E-02
  -2.993  0.472E-02  0.472E-02
  -2.983  0.543E-02  0.543E-02
  -2.973  0.658E-02  0.658E-02
  -2.963  0.819E-02  0.819E-02
  -2.953  0.103E-01  0.103E-01
  -2.943  0.131E-01  0.131E-01
  -2.933  0.165E-01  0.165E-01
  -2.923  0.206E-01  0.206E-01
  -2.913  0.256E-01  0.256E-01
  -2.903  0.315E-01  0.315E-01
  -2.893  0.383E-01  0.383E-01
  -2.883  0.462E-01  0.462E-01
  -2.873  0.550E-01  0.550E-01
  -2.863  0.649E-01  0.649E-01
  -2.853  0.757E-01  0.757E-01
  -2.843  0.873E-01  0.873E-01
  -2.833  0.997E-01  0.997E-01
  -2.823  0.113E+00  0.113E+00
  -2.813  0.126E+00  0.126E+00
  -2.803  0.139E+00  0.139E+00
  -2.793  0.152E+00  0.152E+00
  -2.783  0.164E+00  0.164E+00
  -2.773  0.176E+00  0.176E+00
  -2.763  0.186E+00  0.186E+00
  -2.753  0.195E+00  0.195E+00
  -2.743  0.202E+00  0.202E+00
  -2.733  0.207E+00  0.207E+00
  -2.723  0.210E+00  0.210E+00
  -2.713  0.210E+00  0.210E+00
  -2.703  0.209E+00  0.209E+00
  -2.693  0.205E+00  0.205E+00
  -2.683  0.199E+00  0.199E+00
  -2.673  0.191E+00  0.191E+00
  -2.663  0.181E+00  0.181E+00
  -2.653  0.170E+00  0.170E+00
  -2.643  0.158E+00  0.158E+00
  -2.633  0.146E+00  0.146E+00
  -2.623  0.133E+00  0.133E+00
  -2.613  0.119E+00  0.119E+00
  -2.603  0.106E+00  0.106E+00
  -2.593  0.935E-01  0.935E-01
  -2.583  0.815E-01  0.815E-01
  -2.573  0.703E-01  0.703E-01
  -2.563  0.599E-01  0.599E-01
  -2.553  0.505E-01  0.505E-01
  -2.543  0.422E-01  0.422E-01
  -2.533  0.348E-01  0.348E-01
  -2.523  0.284E-01  0.284E-01
  -2.513  0.230E-01  0.230E-01
  -2.503  0.184E-01  0.184E-01
  -2.493  0.145E-01  0.145E-01
  -2.483  0.114E-01  0.114E-01
  -2.473  0.883E-02  0.883E-02
  -2.463  0.679E-02  0.679E-02
  -2.453  0.519E-02  0.519E-02
  -2.443  0.396E-02  0.396E-02
  -2.433  0.304E-02  0.304E-02
  -2.423  0.239E-02  0.239E-02
  -2.413  0.196E-02  0.196E-02
  -2.403  0.174E-02  0.174E-02
  -2.393  0.170E-02  0.170E-02
  -2.383  0.184E-02  0.184E-02
  -2.373  0.218E-02  0.218E-02
  -2.363  0.273E-02  0.273E-02
  -2.353  0.353E-02  0.353E-02
  -2.343  0.461E-02  0.461E-02
  -2.333  0.603E-02  0.603E-02
  -2.323  0.786E-02  0.786E-02
  -2.313  0.102E-01  0.102E-01
  -2.303  0.130E-01  0.130E-01
  -2.293  0.165E-01  0.165E-01
  -2.283  0.207E-01  0.207E-01
  -2.273  0.257E-01  0.257E-01
  -2.263  0.316E-01  0.316E-01
  -2.253  0.384E-01  0.384E-01
  -2.243  0.462E-01  0.462E-01
  -2.233  0.549E-01  0.549E-01
  -2.223  0.647E-01  0.647E-01
  -2.213  0.753E-01  0.753E-01
  -2.203  0.867E-01  0.867E-01
  -2.193  0.987E-01  0.987E-01
  -2.183  0.111E+00  0.111E+00
  -2.173  0.124E+00  0.124E+00
  -2.163  0.137E+00  0.137E+00
  -2.153  0.149E+00  0.149E+00
  -2.143  0.161E+00  0.161E+00
  -2.133  0.172E+00  0.172E+00
  -2.123  0.182E+00  0.182E+00
  -2.113  0.190E+00  0.190E+00
  -2.103  0.196E+00  0.196E+00
  -2.093  0.201E+00  0.201E+00
  -2.083  0.203E+00  0.203E+00
  -2.073  0.203E+00  0.203E+00
  -2.063  0.201E+00  0.201E+00
  -2.053  0.197E+00  0.197E+00
  -2.043  0.191E+00  0.191E+00
  -2.033  0.183E+00  0.183E+00
  -2.023  0.173E+00  0.173E+00
  -2.013  0.163E+00  0.163E+00
  -2.003  0.151E+00  0.151E+00
  -1.993  0.138E+00  0.138E+00
  -1.983  0.126E+00  0.126E+00
  -1.973  0.113E+00  0.113E+00
  -1.963  0.100E+00  0.100E+00
  -1.953  0.882E-01  0.882E-01
  -1.943  0.767E-01  0.767E-01
  -1.933  0.660E-01  0.660E-01
  -1.923  0.561E-01  0.561E-01
  -1.913  0.473E-01  0.473E-01
  -1.903  0.394E-01  0.394E-01
  -1.893  0.324E-01  0.324E-01
  -1.883  0.264E-01  0.264E-01
  -1.873  0.213E-01  0.213E-01
  -1.863  0.170E-01  0.170E-01
  -1.853  0.134E-01  0.134E-01
  -1.843  0.105E-01  0.105E-01
  -1.833  0.808E-02  0.808E-02
  -1.823  0.618E-02  0.618E-02
  -1.813  0.468E-02  0.468E-02
  -1.803  0.350E-02  0.350E-02
  -1.793  0.261E-02  0.261E-02
  -1.783  0.193E-02  0.193E-02
  -1.773  0.143E-02  0.143E-02
  -1.763  0.108E-02  0.108E-02
  -1.753  0.846E-03  0.846E-03
  -1.743  0.711E-03  0.711E-03
  -1.733  0.666E-03  0.666E-03
  -1.723  0.707E-03  0.707E-03
  -1.713  0.836E-03  0.836E-03
  -1.703  0.106E-02  0.106E-02
  -1.693  0.141E-02  0.141E-02
  -1.683  0.190E-02  0.190E-02
  -1.673  0.256E-02  0.256E-02
  -1.663  0.344E-02  0.344E-02
  -1.653  0.458E-02  0.458E-02
  -1.643  0.605E-02  0.605E-02
  -1.633  0.792E-02  0.792E-02
  -1.623  0.102E-01  0.102E-01
  -1.613  0.131E-01  0.131E-01
  -1.603  0.166E-01  0.166E-01
  -1.593  0.208E-01  0.208E-01
  -1.583  0.258E-01  0.258E-01
  -1.573  0.317E-01  0.317E-01
  -1.563  0.384E-01  0.384E-01
  -1.553  0.461E-01  0.461E-01
  -1.543  0.548E-01  0.548E-01
  -1.533  0.643E-01  0.643E-01
  -1.523  0.748E-01  0.748E-01
  -1.513  0.860E-01  0.860E-01
  -1.503  0.977E-01  0.977E-01
  -1.493  0.110E+00  0.110E+00
  -1.483  0.122E+00  0.122E+00
  -1.473  0.135E+00  0.135E+00
  -1.463  0.147E+00  0.147E+00
  -1.453  0.158E+00  0.158E+00
  -1.443  0.168E+00  0.168E+00
  -1.433  0.178E+00  0.178E+00
  -1.423  0.185E+00  0.185E+00
  -1.413  0.191E+00  0.191E+00
  -1.403  0.195E+00  0.195E+00
  -1.393  0.197E+00  0.197E+00
  -1.383  0.197E+00  0.197E+00
  -1.373  0.194E+00  0.194E+00
  -1.363  0.190E+00  0.190E+00
  -1.353  0.184E+00  0.184E+00
  -1.343  0.176E+00  0.176E+00
  -1.333  0.166E+00  0.166E+00
  -1.323  0.156E+00  0.156E+00
  -1.313  0.144E+00  0.144E+00
  -1.303  0.132E+00  0.132E+00
  -1.293  0.120E+00  0.120E+00
  -1.283  0.107E+00  0.107E+00
  -1.273  0.953E-01  0.953E-01
  -1.263  0.836E-01  0.836E-01
  -1.253  0.726E-01  0.726E-01
  -1.243  0.623E-01  0.623E-01
  -1.233  0.530E-01  0.530E-01
  -1.223  0.445E-01  0.445E-01
  -1.213  0.370E-01  0.370E-01
  -1.203  0.304E-01  0.304E-01
  -1.193  0.247E-01  0.247E-01
  -1.183  0.199E-01  0.199E-01
  -1.173  0.159E-01  0.159E-01
  -1.163  0.125E-01  0.125E-01
  -1.153  0.973E-02  0.973E-02
  -1.143  0.750E-02  0.750E-02
  -1.133  0.572E-02  0.572E-02
  -1.123  0.431E-02  0.431E-02
  -1.113  0.322E-02  0.322E-02
  -1.103  0.238E-02  0.238E-02
  -1.093  0.174E-02  0.174E-02
  -1.083  0.126E-02  0.126E-02
  -1.073  0.912E-03  0.912E-03
  -1.063  0.659E-03  0.659E-03
  -1.053  0.483E-03  0.483E-03
  -1.043  0.367E-03  0.367E-03
  -1.033  0.302E-03  0.302E-03
  -1.023  0.280E-03  0.280E-03
  -1.013  0.299E-03  0.299E-03
  -1.003  0.361E-03  0.361E-03
  -0.993  0.471E-03  0.471E-03
  -0.983  0.642E-03  0.642E-03
  -0.973  0.887E-03  0.887E-03
  -0.963  0.123E-02  0.123E-02
  -0.953  0.169E-02  0.169E-02
  -0.943  0.231E-02  0.231E-02
  -0.933  0.313E-02  0.313E-02
  -0.923  0.419E-02  0.419E-02
  -0.913  0.555E-02  0.555E-02
  -0.903  0.728E-02  0.728E-02
  -0.893  0.945E-02  0.945E-02
  -0.883  0.121E-01  0.121E-01
  -0.873  0.154E-01  0.154E-01
  -0.863  0.193E-01  0.193E-01
  -0.853  0.240E-01  0.240E-01
  -0.843  0.295E-01  0.295E-01
  -0.833  0.359E-01  0.359E-01
  -0.823  0.432E-01  0.432E-01
  -0.813  0.514E-01  0.514E-01
  -0.803  0.605E-01  0.605E-01
  -0.793  0.705E-01  0.705E-01
  -0.783  0.812E-01  0.812E-01
  -0.773  0.925E-01  0.925E-01
  -0.763  0.104E+00  0.104E+00
  -0.753  0.116E+00  0.116E+00
  -0.743  0.128E+00  0.128E+00
  -0.733  0.140E+00  0.140E+00
  -0.723  0.151E+00  0.151E+00
  -0.713  0.161E+00  0.161E+00
  -0.703  0.171E+00  0.171E+00
  -0.693  0.178E+00  0.178E+00
  -0.683  0.184E+00  0.184E+00
  -0.673  0.189E+00  0.189E+00
  -0.663  0.191E+00  0.191E+00
  -0.653  0.191E+00  0.191E+00
  -0.643  0.189E+00  0.189E+00
  -0.633  0.185E+00  0.185E+00
  -0.623  0.180E+00  0.180E+00
  -0.613  0.172E+00  0.172E+00
  -0.603  0.163E+00  0.163E+00
  -0.593  0.153E+00  0.153E+00
  -0.583  0.142E+00  0.142E+00
  -0.573  0.131E+00  0.131E+00
  -0.563  0.119E+00  0.119E+00
  -0.553  0.107E+00  0.107E+00
  -0.543  0.947E-01  0.947E-01
  -0.533  0.833E-01  0.833E-01
  -0.523  0.725E-01  0.725E-01
  -0.513  0.624E-01  0.624E-01
  -0.503  0.531E-01  0.531E-01
  -0.493  0.447E-01  0.447E-01
  -0.483  0.372E-01  0.372E-01
  -0.473  0.307E-01  0.307E-01
  -0.463  0.250E-01  0.250E-01
  -0.453  0.202E-01  0.202E-01
  -0.443  0.161E-01  0.161E-01
  -0.433  0.127E-01  0.127E-01
  -0.423  0.992E-02  0.992E-02
  -0.413  0.766E-02  0.766E-02
  -0.403  0.586E-02  0.586E-02
  -0.393  0.443E-02  0.443E-02
  -0.383  0.331E-02  0.331E-02
  -0.373  0.245E-02  0.245E-02
  -0.363  0.179E-02  0.179E-02
  -0.353  0.130E-02  0.130E-02
  -0.343  0.932E-03  0.932E-03
  -0.333  0.662E-03  0.662E-03
  -0.323  0.468E-03  0.468E-03
  -0.313  0.331E-03  0.331E-03
  -0.303  0.237E-03  0.237E-03
  -0.293  0.176E-03  0.176E-03
  -0.283  0.142E-03  0.142E-03
  -0.273  0.131E-03  0.131E-03
  -0.263  0.141E-03  0.141E-03
  -0.253  0.174E-03  0.174E-03
  -0.243  0.232E-03  0.232E-03
  -0.233  0.324E-03  0.324E-03
  -0.223  0.457E-03  0.457E-03
  -0.213  0.646E-03  0.646E-03
  -0.203  0.909E-03  0.909E-03
  -0.193  0.127E-02  0.127E-02
  -0.183  0.175E-02  0.175E-02
  -0.173  0.239E-02  0.239E-02
  -0.163  0.323E-02  0.323E-02
  -0.153  0.431E-02  0.431E-02
  -0.143  0.570E-02  0.570E-02
  -0.133  0.746E-02  0.746E-02
  -0.123  0.966E-02  0.966E-02
  -0.113  0.124E-01  0.124E-01
  -0.103  0.157E-01  0.157E-01
  -0.093  0.196E-01  0.196E-01
  -0.083  0.243E-01  0.243E-01
  -0.073  0.298E-01  0.298E-01
  -0.063  0.362E-01  0.362E-01
  -0.053  0.434E-01  0.434E-01
  -0.043  0.516E-01  0.516E-01
  -0.033  0.605E-01  0.605E-01
  -0.023  0.703E-01  0.703E-01
  -0.013  0.808E-01  0.808E-01
  -0.003  0.919E-01  0.919E-01
   0.007  0.103E+00  0.103E+00
   0.017  0.115E+00  0.115E+00
   0.027  0.127E+00  0.127E+00
   0.037  0.138E+00  0.138E+00
   0.047  0.148E+00  0.148E+00
   0.057  0.158E+00  0.158E+00
   0.067  0.167E+00  0.167E+00
   0.077  0.174E+00  0.174E+00
   0.087  0.179E+00  0.179E+00
   0.097  0.183E+00  0.183E+00
   0.107  0.185E+00  0.185E+00
   0.117  0.185E+00  0.185E+00
   0.127  0.182E+00  0.182E+00
   0.137  0.178E+00  0.178E+00
   0.147  0.172E+00  0.172E+00
   0.157  0.165E+00  0.165E+00
   0.167  0.156E+00  0.156E+00
   0.177  0.146E+00  0.146E+00
   0.187  0.135E+00  0.135E+00
   0.197  0.124E+00  0.124E+00
   0.207  0.112E+00  0.112E+00
   0.217  0.101E+00  0.101E+00
   0.227  0.892E-01  0.892E-01
   0.237  0.783E-01  0.783E-01
   0.247  0.679E-01  0.679E-01
   0.257  0.583E-01  0.583E-01
   0.267  0.495E-01  0.495E-01
   0.277  0.416E-01  0.416E-01
   0.287  0.346E-01  0.346E-01
   0.297  0.284E-01  0.284E-01
   0.307  0.231E-01  0.231E-01
   0.317  0.186E-01  0.186E-01
   0.327  0.148E-01  0.148E-01
   0.337  0.117E-01  0.117E-01
   0.347  0.908E-02  0.908E-02
   0.357  0.700E-02  0.700E-02
   0.367  0.534E-02  0.534E-02
   0.377  0.402E-02  0.402E-02
   0.387  0.300E-02  0.300E-02
   0.397  0.222E-02  0.222E-02
   0.407  0.162E-02  0.162E-02
   0.417  0.117E-02  0.117E-02
   0.427  0.835E-03  0.835E-03
   0.437  0.591E-03  0.591E-03
   0.447  0.414E-03  0.414E-03
