# Im(k), E-Ef
# k-point    1
   -1.2267   10.0000
   -1.0413   10.0000
   -1.4261   10.0000
   -1.4261   10.0000
   -2.1887   10.0000
   -2.2417   10.0000
   -2.4920   10.0000
   -2.7348   10.0000
   -2.6126   10.0000
   -2.7826   10.0000
   -2.7348   10.0000
   -2.7826   10.0000
   -2.7826   10.0000
   -2.4920   10.0000
   -2.7826   10.0000
   -2.6126   10.0000
   -2.1887   10.0000
   -2.2417   10.0000
   -1.2267   10.0000
   -1.4261   10.0000
   -1.4261   10.0000
   -1.0413   10.0000
   -1.2376    9.6000
   -1.0616    9.6000
   -1.4507    9.6000
   -1.4507    9.6000
   -2.1980    9.6000
   -2.2511    9.6000
   -2.5008    9.6000
   -2.7424    9.6000
   -2.6205    9.6000
   -2.7901    9.6000
   -2.7424    9.6000
   -2.7901    9.6000
   -2.7901    9.6000
   -2.5008    9.6000
   -2.7901    9.6000
   -2.6205    9.6000
   -2.1980    9.6000
   -2.2511    9.6000
   -1.2376    9.6000
   -1.4507    9.6000
   -1.4507    9.6000
   -1.0616    9.6000
   -0.0833    9.2000
   -1.2485    9.2000
   -1.0815    9.2000
   -1.4751    9.2000
   -1.4751    9.2000
   -2.2072    9.2000
   -2.2604    9.2000
   -2.5095    9.2000
   -2.7500    9.2000
   -2.7976    9.2000
   -2.6285    9.2000
   -2.7976    9.2000
   -2.7500    9.2000
   -2.5095    9.2000
   -2.7976    9.2000
   -2.6285    9.2000
   -2.7976    9.2000
   -2.2072    9.2000
   -2.2604    9.2000
   -1.2485    9.2000
   -1.4751    9.2000
   -1.4751    9.2000
   -1.0815    9.2000
   -0.0833    9.2000
   -0.2324    8.8000
   -1.2593    8.8000
   -1.1010    8.8000
   -1.4996    8.8000
   -1.4996    8.8000
   -2.2164    8.8000
   -2.2697    8.8000
   -2.5183    8.8000
   -2.7576    8.8000
   -2.8051    8.8000
   -2.6364    8.8000
   -2.8051    8.8000
   -2.7576    8.8000
   -2.5183    8.8000
   -2.8051    8.8000
   -2.6364    8.8000
   -2.8051    8.8000
   -2.2164    8.8000
   -2.2697    8.8000
   -1.2593    8.8000
   -1.4996    8.8000
   -1.4996    8.8000
   -1.1010    8.8000
   -0.2324    8.8000
   -0.3159    8.4000
   -1.2701    8.4000
   -1.1202    8.4000
   -1.5240    8.4000
   -1.5240    8.4000
   -2.2257    8.4000
   -2.2790    8.4000
   -2.5270    8.4000
   -2.7651    8.4000
   -2.8126    8.4000
   -2.6444    8.4000
   -2.8126    8.4000
   -2.7651    8.4000
   -2.5270    8.4000
   -2.8126    8.4000
   -2.6444    8.4000
   -2.8126    8.4000
   -2.2257    8.4000
   -2.2790    8.4000
   -1.2701    8.4000
   -1.5240    8.4000
   -1.5240    8.4000
   -1.1202    8.4000
   -0.3159    8.4000
   -0.3802    8.0000
   -1.2809    8.0000
   -1.1390    8.0000
   -1.5485    8.0000
   -1.5485    8.0000
   -2.2349    8.0000
   -2.2883    8.0000
   -2.5357    8.0000
   -2.7726    8.0000
   -2.8201    8.0000
   -2.6523    8.0000
   -2.8201    8.0000
   -2.7726    8.0000
   -2.5357    8.0000
   -2.8201    8.0000
   -2.6523    8.0000
   -2.8201    8.0000
   -2.2349    8.0000
   -2.2883    8.0000
   -1.2809    8.0000
   -1.5485    8.0000
   -1.5485    8.0000
   -1.1390    8.0000
   -0.3802    8.0000
   -0.4338    7.6000
   -1.2916    7.6000
   -1.1576    7.6000
   -1.5729    7.6000
   -1.5729    7.6000
   -2.2441    7.6000
   -2.2975    7.6000
   -2.5445    7.6000
   -2.7801    7.6000
   -2.8275    7.6000
   -2.6601    7.6000
   -2.8275    7.6000
   -2.7801    7.6000
   -2.5445    7.6000
   -2.8275    7.6000
   -2.6601    7.6000
   -2.8275    7.6000
   -2.2441    7.6000
   -2.2975    7.6000
   -1.2916    7.6000
   -1.5729    7.6000
   -1.5729    7.6000
   -1.1576    7.6000
   -0.4338    7.6000
   -0.4805    7.2000
   -1.3022    7.2000
   -1.1758    7.2000
   -1.5973    7.2000
   -1.5973    7.2000
   -2.2533    7.2000
   -2.3066    7.2000
   -2.5532    7.2000
   -2.7876    7.2000
   -2.8349    7.2000
   -2.6680    7.2000
   -2.8349    7.2000
   -2.7876    7.2000
   -2.5532    7.2000
   -2.8349    7.2000
   -2.6680    7.2000
   -2.8349    7.2000
   -2.2533    7.2000
   -2.3066    7.2000
   -1.3022    7.2000
   -1.5973    7.2000
   -1.5973    7.2000
   -1.1758    7.2000
   -0.4805    7.2000
   -0.5222    6.8000
   -1.3128    6.8000
   -1.1937    6.8000
   -1.6218    6.8000
   -1.6218    6.8000
   -2.2624    6.8000
   -2.3158    6.8000
   -2.5619    6.8000
   -2.7951    6.8000
   -2.8423    6.8000
   -2.6758    6.8000
   -2.8423    6.8000
   -2.7951    6.8000
   -2.5619    6.8000
   -2.8423    6.8000
   -2.6758    6.8000
   -2.8423    6.8000
   -2.2624    6.8000
   -2.3158    6.8000
   -1.3128    6.8000
   -1.6218    6.8000
   -1.6218    6.8000
   -1.1937    6.8000
   -0.5222    6.8000
   -0.5601    6.4000
   -1.3233    6.4000
   -1.2114    6.4000
   -1.6462    6.4000
   -1.6462    6.4000
   -2.2716    6.4000
   -2.3248    6.4000
   -2.5706    6.4000
   -2.8025    6.4000
   -2.8497    6.4000
   -2.6836    6.4000
   -2.8497    6.4000
   -2.8025    6.4000
   -2.5706    6.4000
   -2.8497    6.4000
   -2.6836    6.4000
   -2.8497    6.4000
   -2.2716    6.4000
   -2.3248    6.4000
   -1.3233    6.4000
   -1.6462    6.4000
   -1.6462    6.4000
   -1.2114    6.4000
   -0.5601    6.4000
   -0.5949    6.0000
   -1.3338    6.0000
   -1.2288    6.0000
   -1.6707    6.0000
   -1.6707    6.0000
   -2.2807    6.0000
   -2.3339    6.0000
   -2.5792    6.0000
   -2.8099    6.0000
   -2.8571    6.0000
   -2.6914    6.0000
   -2.8571    6.0000
   -2.8099    6.0000
   -2.5792    6.0000
   -2.8571    6.0000
   -2.6914    6.0000
   -2.8571    6.0000
   -2.2807    6.0000
   -2.3339    6.0000
   -1.3338    6.0000
   -1.6707    6.0000
   -1.6707    6.0000
   -1.2288    6.0000
   -0.5949    6.0000
   -0.6272    5.6000
   -1.3443    5.6000
   -1.2460    5.6000
   -1.6952    5.6000
   -1.6952    5.6000
   -2.2898    5.6000
   -2.3429    5.6000
   -2.5879    5.6000
   -2.8174    5.6000
   -2.8644    5.6000
   -2.6991    5.6000
   -2.8644    5.6000
   -2.8174    5.6000
   -2.5879    5.6000
   -2.8644    5.6000
   -2.6991    5.6000
   -2.8644    5.6000
   -2.2898    5.6000
   -2.3429    5.6000
   -1.3443    5.6000
   -1.6952    5.6000
   -1.6952    5.6000
   -1.2460    5.6000
   -0.6272    5.6000
   -0.6574    5.2000
   -0.2265    5.2000
   -0.2265    5.2000
   -1.3547    5.2000
   -1.2629    5.2000
   -1.7197    5.2000
   -1.7197    5.2000
   -2.2989    5.2000
   -2.3519    5.2000
   -2.5965    5.2000
   -2.8247    5.2000
   -2.8717    5.2000
   -2.8717    5.2000
   -2.5965    5.2000
   -2.7069    5.2000
   -2.7069    5.2000
   -2.8247    5.2000
   -2.2989    5.2000
   -2.8717    5.2000
   -2.3519    5.2000
   -2.8717    5.2000
   -1.3547    5.2000
   -1.7197    5.2000
   -1.7197    5.2000
   -1.2629    5.2000
   -0.6574    5.2000
   -0.2265    5.2000
   -0.2265    5.2000
   -0.1487    4.8000
   -0.6857    4.8000
   -0.3223    4.8000
   -0.3223    4.8000
   -1.3650    4.8000
   -1.2796    4.8000
   -1.7441    4.8000
   -1.7441    4.8000
   -2.3080    4.8000
   -2.3609    4.8000
   -2.6052    4.8000
   -2.8321    4.8000
   -2.8790    4.8000
   -2.8790    4.8000
   -2.6052    4.8000
   -2.7146    4.8000
   -2.7146    4.8000
   -2.3080    4.8000
   -2.8321    4.8000
   -2.3609    4.8000
   -2.8790    4.8000
   -2.8790    4.8000
   -1.3650    4.8000
   -1.7441    4.8000
   -1.7441    4.8000
   -1.2796    4.8000
   -0.6857    4.8000
   -0.1487    4.8000
   -0.3223    4.8000
   -0.3223    4.8000
   -0.2549    4.4000
   -0.7125    4.4000
   -0.3958    4.4000
   -0.3958    4.4000
   -1.3753    4.4000
   -1.2961    4.4000
   -1.7685    4.4000
   -1.7685    4.4000
   -2.3170    4.4000
   -2.3698    4.4000
   -2.6138    4.4000
   -2.8395    4.4000
   -2.8863    4.4000
   -2.8863    4.4000
   -2.6138    4.4000
   -2.7223    4.4000
   -2.7223    4.4000
   -2.3170    4.4000
   -2.8395    4.4000
   -2.3698    4.4000
   -2.8863    4.4000
   -2.8863    4.4000
   -1.3753    4.4000
   -1.7685    4.4000
   -1.7685    4.4000
   -1.2961    4.4000
   -0.7125    4.4000
   -0.2549    4.4000
   -0.3958    4.4000
   -0.3958    4.4000
   -0.3283    4.0000
   -0.7380    4.0000
   -0.4579    4.0000
   -0.4579    4.0000
   -1.3856    4.0000
   -1.3124    4.0000
   -1.7929    4.0000
   -1.7929    4.0000
   -2.3261    4.0000
   -2.3787    4.0000
   -2.6224    4.0000
   -2.8468    4.0000
   -2.8936    4.0000
   -2.8936    4.0000
   -2.6224    4.0000
   -2.7299    4.0000
   -2.7299    4.0000
   -2.3261    4.0000
   -2.8468    4.0000
   -2.3787    4.0000
   -2.8936    4.0000
   -2.8936    4.0000
   -1.3856    4.0000
   -1.7929    4.0000
   -1.7929    4.0000
   -1.3124    4.0000
   -0.7380    4.0000
   -0.3283    4.0000
   -0.4579    4.0000
   -0.4579    4.0000
   -0.3879    3.6000
   -0.7622    3.6000
   -0.5127    3.6000
   -0.5127    3.6000
   -1.3958    3.6000
   -1.3284    3.6000
   -1.8171    3.6000
   -1.8171    3.6000
   -2.3351    3.6000
   -2.6310    3.6000
   -2.3875    3.6000
   -2.8541    3.6000
   -2.9008    3.6000
   -2.9008    3.6000
   -2.6310    3.6000
   -2.7376    3.6000
   -2.7376    3.6000
   -2.3351    3.6000
   -2.8541    3.6000
   -2.3875    3.6000
   -2.9008    3.6000
   -2.9008    3.6000
   -1.3958    3.6000
   -1.8171    3.6000
   -1.8171    3.6000
   -1.3284    3.6000
   -0.7622    3.6000
   -0.3879    3.6000
   -0.5127    3.6000
   -0.5127    3.6000
   -0.4395    3.2000
   -0.7853    3.2000
   -0.5623    3.2000
   -0.5623    3.2000
   -1.4060    3.2000
   -1.3443    3.2000
   -1.8412    3.2000
   -1.8412    3.2000
   -2.3441    3.2000
   -2.6396    3.2000
   -2.3963    3.2000
   -2.8614    3.2000
   -2.9080    3.2000
   -2.9080    3.2000
   -2.6396    3.2000
   -2.7452    3.2000
   -2.7452    3.2000
   -2.3441    3.2000
   -2.8614    3.2000
   -2.3963    3.2000
   -2.9080    3.2000
   -2.9080    3.2000
   -1.4060    3.2000
   -1.8412    3.2000
   -1.8412    3.2000
   -1.3443    3.2000
   -0.7853    3.2000
   -0.4395    3.2000
   -0.5623    3.2000
   -0.5623    3.2000
   -0.4856    2.8000
   -0.8075    2.8000
   -0.6082    2.8000
   -0.6082    2.8000
   -1.4161    2.8000
   -1.3600    2.8000
   -1.8651    2.8000
   -1.8651    2.8000
   -2.3530    2.8000
   -2.6482    2.8000
   -2.4051    2.8000
   -2.8687    2.8000
   -2.9152    2.8000
   -2.9152    2.8000
   -2.6482    2.8000
   -2.7528    2.8000
   -2.7528    2.8000
   -2.3530    2.8000
   -2.8687    2.8000
   -2.4051    2.8000
   -2.9152    2.8000
   -2.9152    2.8000
   -1.4161    2.8000
   -1.8651    2.8000
   -1.8651    2.8000
   -1.3600    2.8000
   -0.8075    2.8000
   -0.4856    2.8000
   -0.6082    2.8000
   -0.6082    2.8000
   -0.5276    2.4000
   -0.8288    2.4000
   -0.6510    2.4000
   -0.6510    2.4000
   -1.4262    2.4000
   -1.3755    2.4000
   -1.8887    2.4000
   -1.8887    2.4000
   -2.3620    2.4000
   -2.6567    2.4000
   -2.4138    2.4000
   -2.8759    2.4000
   -2.9224    2.4000
   -2.9224    2.4000
   -2.6567    2.4000
   -2.7604    2.4000
   -2.7604    2.4000
   -2.3620    2.4000
   -2.8759    2.4000
   -2.4138    2.4000
   -2.9224    2.4000
   -2.9224    2.4000
   -1.8887    2.4000
   -1.8887    2.4000
   -1.4262    2.4000
   -1.3755    2.4000
   -0.8288    2.4000
   -0.5276    2.4000
   -0.6510    2.4000
   -0.6510    2.4000
   -0.5665    2.0000
   -0.8493    2.0000
   -0.6913    2.0000
   -0.6913    2.0000
   -1.4362    2.0000
   -1.3908    2.0000
   -1.9121    2.0000
   -1.9121    2.0000
   -2.3709    2.0000
   -2.8832    2.0000
   -2.6652    2.0000
   -2.9296    2.0000
   -2.4226    2.0000
   -2.9296    2.0000
   -2.6652    2.0000
   -2.7680    2.0000
   -2.7680    2.0000
   -2.3709    2.0000
   -2.8832    2.0000
   -2.4226    2.0000
   -2.9296    2.0000
   -2.9296    2.0000
   -1.9121    2.0000
   -1.9121    2.0000
   -1.4362    2.0000
   -1.3908    2.0000
   -0.8493    2.0000
   -0.5665    2.0000
   -0.6913    2.0000
   -0.6913    2.0000
   -0.6029    1.6000
   -0.8690    1.6000
   -0.7297    1.6000
   -0.7297    1.6000
   -1.4462    1.6000
   -1.4059    1.6000
   -1.9351    1.6000
   -1.9351    1.6000
   -2.3798    1.6000
   -2.8904    1.6000
   -2.6738    1.6000
   -2.9367    1.6000
   -2.4312    1.6000
   -2.9367    1.6000
   -2.6738    1.6000
   -2.7755    1.6000
   -2.7755    1.6000
   -2.3798    1.6000
   -2.8904    1.6000
   -2.4312    1.6000
   -2.9367    1.6000
   -2.9367    1.6000
   -1.9351    1.6000
   -1.9351    1.6000
   -1.4462    1.6000
   -1.4059    1.6000
   -0.8690    1.6000
   -0.6029    1.6000
   -0.7297    1.6000
   -0.7297    1.6000
   -0.6371    1.2000
   -0.8881    1.2000
   -0.7663    1.2000
   -0.7663    1.2000
   -1.4562    1.2000
   -1.4209    1.2000
   -1.9578    1.2000
   -1.9578    1.2000
   -2.3887    1.2000
   -2.8976    1.2000
   -2.6823    1.2000
   -2.9439    1.2000
   -2.4399    1.2000
   -2.9439    1.2000
   -2.6823    1.2000
   -2.7830    1.2000
   -2.7830    1.2000
   -2.3887    1.2000
   -2.8976    1.2000
   -2.4399    1.2000
   -2.9439    1.2000
   -2.9439    1.2000
   -1.9578    1.2000
   -1.9578    1.2000
   -1.4562    1.2000
   -1.4209    1.2000
   -0.8881    1.2000
   -0.6371    1.2000
   -0.7663    1.2000
   -0.7663    1.2000
   -0.6696    0.8000
   -0.9065    0.8000
   -0.8015    0.8000
   -0.8015    0.8000
   -1.4661    0.8000
   -1.4357    0.8000
   -1.9801    0.8000
   -1.9801    0.8000
   -2.3975    0.8000
   -2.9048    0.8000
   -2.9510    0.8000
   -2.9510    0.8000
   -2.6908    0.8000
   -2.6908    0.8000
   -2.4485    0.8000
   -2.7905    0.8000
   -2.7905    0.8000
   -2.3975    0.8000
   -2.9048    0.8000
   -2.4485    0.8000
   -2.9510    0.8000
   -2.9510    0.8000
   -1.9801    0.8000
   -1.9801    0.8000
   -1.4661    0.8000
   -1.4357    0.8000
   -0.9065    0.8000
   -0.6696    0.8000
   -0.8015    0.8000
   -0.8015    0.8000
   -0.7006    0.4000
   -0.9244    0.4000
   -0.8354    0.4000
   -0.8354    0.4000
   -1.4760    0.4000
   -1.4504    0.4000
   -2.0019    0.4000
   -2.0019    0.4000
   -2.4064    0.4000
   -2.9119    0.4000
   -2.9581    0.4000
   -2.9581    0.4000
   -2.6992    0.4000
   -2.6992    0.4000
   -2.4571    0.4000
   -2.7980    0.4000
   -2.7980    0.4000
   -2.4064    0.4000
   -2.9119    0.4000
   -2.4571    0.4000
   -2.9581    0.4000
   -2.9581    0.4000
   -2.0019    0.4000
   -2.0019    0.4000
   -1.4760    0.4000
   -1.4504    0.4000
   -0.9244    0.4000
   -0.7006    0.4000
   -0.8354    0.4000
   -0.8354    0.4000
   -0.7302    0.0000
   -0.9417    0.0000
   -0.8682    0.0000
   -0.8682    0.0000
   -1.4858    0.0000
   -1.4649    0.0000
   -2.0232    0.0000
   -2.0232    0.0000
   -2.4152    0.0000
   -2.9191    0.0000
   -2.9652    0.0000
   -2.9651    0.0000
   -2.7077    0.0000
   -2.7077    0.0000
   -2.4657    0.0000
   -2.8055    0.0000
   -2.8055    0.0000
   -2.4152    0.0000
   -2.9191    0.0000
   -2.4657    0.0000
   -2.9652    0.0000
   -2.9652    0.0000
   -2.0232    0.0000
   -2.0232    0.0000
   -1.4858    0.0000
   -1.4649    0.0000
   -0.9417    0.0000
   -0.7302    0.0000
   -0.8682    0.0000
   -0.8682    0.0000
   -0.9585   -0.4000
   -0.7587   -0.4000
   -0.9000   -0.4000
   -1.4956   -0.4000
   -0.9000   -0.4000
   -1.4793   -0.4000
   -2.0441   -0.4000
   -2.0441   -0.4000
   -2.4240   -0.4000
   -2.9262   -0.4000
   -2.9722   -0.4000
   -2.9722   -0.4000
   -2.7161   -0.4000
   -2.7161   -0.4000
   -2.4742   -0.4000
   -2.8129   -0.4000
   -2.8129   -0.4000
   -2.4240   -0.4000
   -2.9262   -0.4000
   -2.4742   -0.4000
   -2.9722   -0.4000
   -2.9722   -0.4000
   -2.0441   -0.4000
   -2.0441   -0.4000
   -1.4956   -0.4000
   -1.4793   -0.4000
   -0.9585   -0.4000
   -0.7587   -0.4000
   -0.9000   -0.4000
   -0.9000   -0.4000
   -0.9749   -0.8000
   -0.7861   -0.8000
   -0.9310   -0.8000
   -0.9310   -0.8000
   -1.5054   -0.8000
   -1.4935   -0.8000
   -2.0644   -0.8000
   -2.0644   -0.8000
   -2.4327   -0.8000
   -2.9333   -0.8000
   -2.9793   -0.8000
   -2.9793   -0.8000
   -2.7246   -0.8000
   -2.7246   -0.8000
   -2.4827   -0.8000
   -2.8204   -0.8000
   -2.8204   -0.8000
   -2.4327   -0.8000
   -2.9333   -0.8000
   -2.4827   -0.8000
   -2.9793   -0.8000
   -2.9793   -0.8000
   -2.0644   -0.8000
   -2.0644   -0.8000
   -1.5054   -0.8000
   -1.4935   -0.8000
   -0.9749   -0.8000
   -0.7861   -0.8000
   -0.9310   -0.8000
   -0.9310   -0.8000
   -0.9909   -1.2000
   -0.8126   -1.2000
   -0.9612   -1.2000
   -1.5151   -1.2000
   -0.9612   -1.2000
   -1.5076   -1.2000
   -2.0842   -1.2000
   -2.0842   -1.2000
   -2.4415   -1.2000
   -2.9404   -1.2000
   -2.9863   -1.2000
   -2.9863   -1.2000
   -2.7330   -1.2000
   -2.7330   -1.2000
   -2.4912   -1.2000
   -2.8278   -1.2000
   -2.8278   -1.2000
   -2.4415   -1.2000
   -2.9404   -1.2000
   -2.4912   -1.2000
   -2.9863   -1.2000
   -2.9863   -1.2000
   -2.0842   -1.2000
   -2.0842   -1.2000
   -1.5151   -1.2000
   -1.5076   -1.2000
   -0.9909   -1.2000
   -0.8126   -1.2000
   -0.9612   -1.2000
   -0.9612   -1.2000
   -1.0064   -1.6000
   -0.8382   -1.6000
   -0.9908   -1.6000
   -0.9908   -1.6000
   -1.5248   -1.6000
   -1.5216   -1.6000
   -2.1035   -1.6000
   -2.1035   -1.6000
   -2.4502   -1.6000
   -2.9475   -1.6000
   -2.9933   -1.6000
   -2.9933   -1.6000
   -2.7414   -1.6000
   -2.7414   -1.6000
   -2.4996   -1.6000
   -2.8351   -1.6000
   -2.8351   -1.6000
   -2.4502   -1.6000
   -2.9475   -1.6000
   -2.4996   -1.6000
   -2.9933   -1.6000
   -2.9933   -1.6000
   -2.1035   -1.6000
   -2.1035   -1.6000
   -1.5248   -1.6000
   -1.5216   -1.6000
   -1.0064   -1.6000
   -0.8382   -1.6000
   -0.9908   -1.6000
   -0.9908   -1.6000
   -0.0263   -2.0000
   -0.8631   -2.0000
   -1.0216   -2.0000
   -1.0198   -2.0000
   -1.5345   -2.0000
   -1.0198   -2.0000
   -1.5354   -2.0000
   -2.1222   -2.0000
   -2.1222   -2.0000
   -2.4589   -2.0000
   -2.9546   -2.0000
   -2.7498   -2.0000
   -2.7498   -2.0000
   -2.8425   -2.0000
   -2.5080   -2.0000
   -2.4589   -2.0000
   -2.8425   -2.0000
   -2.5080   -2.0000
   -2.9546   -2.0000
   -2.1222   -2.0000
   -2.1222   -2.0000
   -1.5345   -2.0000
   -1.5354   -2.0000
   -1.0216   -2.0000
   -0.8631   -2.0000
   -1.0198   -2.0000
   -1.0198   -2.0000
   -0.0263   -2.0000
   -0.0376   -2.4000
   -1.0364   -2.4000
   -0.8873   -2.4000
   -1.5441   -2.4000
   -1.0482   -2.4000
   -1.0482   -2.4000
   -1.5491   -2.4000
   -2.1405   -2.4000
   -2.1405   -2.4000
   -2.4675   -2.4000
   -2.9616   -2.4000
   -2.7582   -2.4000
   -2.7582   -2.4000
   -2.8499   -2.4000
   -2.5164   -2.4000
   -2.4675   -2.4000
   -2.8499   -2.4000
   -2.5164   -2.4000
   -2.9616   -2.4000
   -2.1405   -2.4000
   -2.1405   -2.4000
   -1.5441   -2.4000
   -1.5491   -2.4000
   -1.0364   -2.4000
   -0.8873   -2.4000
   -1.0482   -2.4000
   -1.0482   -2.4000
   -0.0376   -2.4000
   -0.0334   -2.8000
   -1.0508   -2.8000
   -0.9108   -2.8000
   -1.5536   -2.8000
   -1.0762   -2.8000
   -1.0762   -2.8000
   -1.5627   -2.8000
   -2.1583   -2.8000
   -2.1583   -2.8000
   -2.4762   -2.8000
   -2.9686   -2.8000
   -2.7665   -2.8000
   -2.7665   -2.8000
   -2.8572   -2.8000
   -2.5247   -2.8000
   -2.4762   -2.8000
   -2.8572   -2.8000
   -2.5247   -2.8000
   -2.9686   -2.8000
   -2.1583   -2.8000
   -2.1583   -2.8000
   -1.5536   -2.8000
   -1.5627   -2.8000
   -1.0508   -2.8000
   -0.9108   -2.8000
   -1.0762   -2.8000
   -1.0762   -2.8000
   -0.0334   -2.8000
   -1.0650   -3.2000
   -0.9337   -3.2000
   -1.5632   -3.2000
   -1.1038   -3.2000
   -1.1038   -3.2000
   -1.5762   -3.2000
   -2.1756   -3.2000
   -2.1756   -3.2000
   -2.4848   -3.2000
   -2.9757   -3.2000
   -2.7749   -3.2000
   -2.7749   -3.2000
   -2.5331   -3.2000
   -2.8645   -3.2000
   -2.8645   -3.2000
   -2.4848   -3.2000
   -2.9757   -3.2000
   -2.5331   -3.2000
   -2.1756   -3.2000
   -2.1756   -3.2000
   -1.5632   -3.2000
   -1.5762   -3.2000
   -1.0650   -3.2000
   -0.9337   -3.2000
   -1.1038   -3.2000
   -1.1038   -3.2000
   -1.0788   -3.6000
   -0.9561   -3.6000
   -1.5727   -3.6000
   -1.1311   -3.6000
   -1.1311   -3.6000
   -1.5895   -3.6000
   -2.4934   -3.6000
   -2.1924   -3.6000
   -2.1924   -3.6000
   -2.9827   -3.6000
   -2.7832   -3.6000
   -2.7832   -3.6000
   -2.5414   -3.6000
   -2.8718   -3.6000
   -2.8718   -3.6000
   -2.4934   -3.6000
   -2.9827   -3.6000
   -2.5414   -3.6000
   -2.1924   -3.6000
