# E (eV)   ldos(E)   pdos(E)   
  -6.301  0.308E-04  0.308E-04
  -6.291  0.480E-04  0.480E-04
  -6.281  0.741E-04  0.741E-04
  -6.271  0.113E-03  0.113E-03
  -6.261  0.171E-03  0.171E-03
  -6.251  0.256E-03  0.256E-03
  -6.241  0.378E-03  0.378E-03
  -6.231  0.554E-03  0.554E-03
  -6.221  0.803E-03  0.803E-03
  -6.211  0.115E-02  0.115E-02
  -6.201  0.163E-02  0.163E-02
  -6.191  0.229E-02  0.229E-02
  -6.181  0.319E-02  0.319E-02
  -6.171  0.438E-02  0.438E-02
  -6.161  0.597E-02  0.597E-02
  -6.151  0.804E-02  0.804E-02
  -6.141  0.107E-01  0.107E-01
  -6.131  0.141E-01  0.141E-01
  -6.121  0.185E-01  0.185E-01
  -6.111  0.239E-01  0.239E-01
  -6.101  0.305E-01  0.305E-01
  -6.091  0.387E-01  0.387E-01
  -6.081  0.485E-01  0.485E-01
  -6.071  0.601E-01  0.601E-01
  -6.061  0.739E-01  0.739E-01
  -6.051  0.898E-01  0.898E-01
  -6.041  0.108E+00  0.108E+00
  -6.031  0.129E+00  0.129E+00
  -6.021  0.152E+00  0.152E+00
  -6.011  0.178E+00  0.178E+00
  -6.001  0.206E+00  0.206E+00
  -5.991  0.236E+00  0.236E+00
  -5.981  0.268E+00  0.268E+00
  -5.971  0.301E+00  0.301E+00
  -5.961  0.335E+00  0.335E+00
  -5.951  0.370E+00  0.370E+00
  -5.941  0.405E+00  0.405E+00
  -5.931  0.439E+00  0.439E+00
  -5.921  0.472E+00  0.472E+00
  -5.911  0.503E+00  0.503E+00
  -5.901  0.531E+00  0.531E+00
  -5.891  0.557E+00  0.557E+00
  -5.881  0.579E+00  0.579E+00
  -5.871  0.597E+00  0.597E+00
  -5.861  0.612E+00  0.612E+00
  -5.851  0.622E+00  0.622E+00
  -5.841  0.628E+00  0.628E+00
  -5.831  0.630E+00  0.630E+00
  -5.821  0.629E+00  0.629E+00
  -5.811  0.624E+00  0.624E+00
  -5.801  0.615E+00  0.615E+00
  -5.791  0.604E+00  0.604E+00
  -5.781  0.590E+00  0.590E+00
  -5.771  0.575E+00  0.575E+00
  -5.761  0.558E+00  0.558E+00
  -5.751  0.540E+00  0.540E+00
  -5.741  0.521E+00  0.521E+00
  -5.731  0.502E+00  0.502E+00
  -5.721  0.483E+00  0.483E+00
  -5.711  0.464E+00  0.464E+00
  -5.701  0.447E+00  0.447E+00
  -5.691  0.430E+00  0.430E+00
  -5.681  0.414E+00  0.414E+00
  -5.671  0.400E+00  0.400E+00
  -5.661  0.386E+00  0.386E+00
  -5.651  0.374E+00  0.374E+00
  -5.641  0.363E+00  0.363E+00
  -5.631  0.353E+00  0.353E+00
  -5.621  0.344E+00  0.344E+00
  -5.611  0.336E+00  0.336E+00
  -5.601  0.329E+00  0.329E+00
  -5.591  0.322E+00  0.322E+00
  -5.581  0.315E+00  0.315E+00
  -5.571  0.308E+00  0.308E+00
  -5.561  0.302E+00  0.302E+00
  -5.551  0.296E+00  0.296E+00
  -5.541  0.289E+00  0.289E+00
  -5.531  0.282E+00  0.282E+00
  -5.521  0.276E+00  0.276E+00
  -5.511  0.269E+00  0.269E+00
  -5.501  0.262E+00  0.262E+00
  -5.491  0.255E+00  0.255E+00
  -5.481  0.249E+00  0.249E+00
  -5.471  0.242E+00  0.242E+00
  -5.461  0.236E+00  0.236E+00
  -5.451  0.231E+00  0.231E+00
  -5.441  0.226E+00  0.226E+00
  -5.431  0.221E+00  0.221E+00
  -5.421  0.218E+00  0.218E+00
  -5.411  0.215E+00  0.215E+00
  -5.401  0.212E+00  0.212E+00
  -5.391  0.211E+00  0.211E+00
  -5.381  0.210E+00  0.210E+00
  -5.371  0.209E+00  0.209E+00
  -5.361  0.209E+00  0.209E+00
  -5.351  0.210E+00  0.210E+00
  -5.341  0.211E+00  0.211E+00
  -5.331  0.211E+00  0.211E+00
  -5.321  0.212E+00  0.212E+00
  -5.311  0.213E+00  0.213E+00
  -5.301  0.213E+00  0.213E+00
  -5.291  0.213E+00  0.213E+00
  -5.281  0.213E+00  0.213E+00
  -5.271  0.212E+00  0.212E+00
  -5.261  0.210E+00  0.210E+00
  -5.251  0.208E+00  0.208E+00
  -5.241  0.205E+00  0.205E+00
  -5.231  0.201E+00  0.201E+00
  -5.221  0.196E+00  0.196E+00
  -5.211  0.191E+00  0.191E+00
  -5.201  0.186E+00  0.186E+00
  -5.191  0.180E+00  0.180E+00
  -5.181  0.173E+00  0.173E+00
  -5.171  0.167E+00  0.167E+00
  -5.161  0.161E+00  0.161E+00
  -5.151  0.155E+00  0.155E+00
  -5.141  0.149E+00  0.149E+00
  -5.131  0.144E+00  0.144E+00
  -5.121  0.140E+00  0.140E+00
  -5.111  0.137E+00  0.137E+00
  -5.101  0.135E+00  0.135E+00
  -5.091  0.133E+00  0.133E+00
  -5.081  0.133E+00  0.133E+00
  -5.071  0.134E+00  0.134E+00
  -5.061  0.135E+00  0.135E+00
  -5.051  0.138E+00  0.138E+00
  -5.041  0.142E+00  0.142E+00
  -5.031  0.146E+00  0.146E+00
  -5.021  0.151E+00  0.151E+00
  -5.011  0.156E+00  0.156E+00
  -5.001  0.161E+00  0.161E+00
  -4.991  0.167E+00  0.167E+00
  -4.981  0.172E+00  0.172E+00
  -4.971  0.176E+00  0.176E+00
  -4.961  0.180E+00  0.180E+00
  -4.951  0.183E+00  0.183E+00
  -4.941  0.186E+00  0.186E+00
  -4.931  0.187E+00  0.187E+00
  -4.921  0.186E+00  0.186E+00
  -4.911  0.185E+00  0.185E+00
  -4.901  0.182E+00  0.182E+00
  -4.891  0.178E+00  0.178E+00
  -4.881  0.173E+00  0.173E+00
  -4.871  0.167E+00  0.167E+00
  -4.861  0.160E+00  0.160E+00
  -4.851  0.152E+00  0.152E+00
  -4.841  0.144E+00  0.144E+00
  -4.831  0.135E+00  0.135E+00
  -4.821  0.127E+00  0.127E+00
  -4.811  0.118E+00  0.118E+00
  -4.801  0.110E+00  0.110E+00
  -4.791  0.102E+00  0.102E+00
  -4.781  0.951E-01  0.951E-01
  -4.771  0.892E-01  0.892E-01
  -4.761  0.845E-01  0.845E-01
  -4.751  0.810E-01  0.810E-01
  -4.741  0.788E-01  0.788E-01
  -4.731  0.781E-01  0.781E-01
  -4.721  0.787E-01  0.787E-01
  -4.711  0.808E-01  0.808E-01
  -4.701  0.842E-01  0.842E-01
  -4.691  0.888E-01  0.888E-01
  -4.681  0.946E-01  0.946E-01
  -4.671  0.101E+00  0.101E+00
  -4.661  0.109E+00  0.109E+00
  -4.651  0.117E+00  0.117E+00
  -4.641  0.126E+00  0.126E+00
  -4.631  0.134E+00  0.134E+00
  -4.621  0.143E+00  0.143E+00
  -4.611  0.151E+00  0.151E+00
  -4.601  0.159E+00  0.159E+00
  -4.591  0.166E+00  0.166E+00
  -4.581  0.172E+00  0.172E+00
  -4.571  0.177E+00  0.177E+00
  -4.561  0.181E+00  0.181E+00
  -4.551  0.183E+00  0.183E+00
  -4.541  0.183E+00  0.183E+00
  -4.531  0.182E+00  0.182E+00
  -4.521  0.180E+00  0.180E+00
  -4.511  0.176E+00  0.176E+00
  -4.501  0.170E+00  0.170E+00
  -4.491  0.163E+00  0.163E+00
  -4.481  0.155E+00  0.155E+00
  -4.471  0.146E+00  0.146E+00
  -4.461  0.137E+00  0.137E+00
  -4.451  0.126E+00  0.126E+00
  -4.441  0.116E+00  0.116E+00
  -4.431  0.106E+00  0.106E+00
  -4.421  0.956E-01  0.956E-01
  -4.411  0.859E-01  0.859E-01
  -4.401  0.769E-01  0.769E-01
  -4.391  0.686E-01  0.686E-01
  -4.381  0.614E-01  0.614E-01
  -4.371  0.552E-01  0.552E-01
  -4.361  0.503E-01  0.503E-01
  -4.351  0.466E-01  0.466E-01
  -4.341  0.444E-01  0.444E-01
  -4.331  0.435E-01  0.435E-01
  -4.321  0.440E-01  0.440E-01
  -4.311  0.460E-01  0.460E-01
  -4.301  0.494E-01  0.494E-01
  -4.291  0.541E-01  0.541E-01
  -4.281  0.602E-01  0.602E-01
  -4.271  0.675E-01  0.675E-01
  -4.261  0.759E-01  0.759E-01
  -4.251  0.852E-01  0.852E-01
  -4.241  0.953E-01  0.953E-01
  -4.231  0.106E+00  0.106E+00
  -4.221  0.117E+00  0.117E+00
  -4.211  0.128E+00  0.128E+00
  -4.201  0.139E+00  0.139E+00
  -4.191  0.150E+00  0.150E+00
  -4.181  0.159E+00  0.159E+00
  -4.171  0.168E+00  0.168E+00
  -4.161  0.176E+00  0.176E+00
  -4.151  0.182E+00  0.182E+00
  -4.141  0.186E+00  0.186E+00
  -4.131  0.188E+00  0.188E+00
  -4.121  0.189E+00  0.189E+00
  -4.111  0.188E+00  0.188E+00
  -4.101  0.185E+00  0.185E+00
  -4.091  0.180E+00  0.180E+00
  -4.081  0.174E+00  0.174E+00
  -4.071  0.166E+00  0.166E+00
  -4.061  0.157E+00  0.157E+00
  -4.051  0.147E+00  0.147E+00
  -4.041  0.136E+00  0.136E+00
  -4.031  0.125E+00  0.125E+00
  -4.021  0.114E+00  0.114E+00
  -4.011  0.103E+00  0.103E+00
  -4.001  0.919E-01  0.919E-01
  -3.991  0.817E-01  0.817E-01
  -3.981  0.722E-01  0.722E-01
  -3.971  0.637E-01  0.637E-01
  -3.961  0.561E-01  0.561E-01
  -3.951  0.497E-01  0.497E-01
  -3.941  0.446E-01  0.446E-01
  -3.931  0.407E-01  0.407E-01
  -3.921  0.381E-01  0.381E-01
  -3.911  0.369E-01  0.369E-01
  -3.901  0.370E-01  0.370E-01
  -3.891  0.385E-01  0.385E-01
  -3.881  0.413E-01  0.413E-01
  -3.871  0.454E-01  0.454E-01
  -3.861  0.508E-01  0.508E-01
  -3.851  0.573E-01  0.573E-01
  -3.841  0.651E-01  0.651E-01
  -3.831  0.738E-01  0.738E-01
  -3.821  0.834E-01  0.834E-01
  -3.811  0.938E-01  0.938E-01
  -3.801  0.105E+00  0.105E+00
  -3.791  0.116E+00  0.116E+00
  -3.781  0.128E+00  0.128E+00
  -3.771  0.140E+00  0.140E+00
  -3.761  0.151E+00  0.151E+00
  -3.751  0.162E+00  0.162E+00
  -3.741  0.172E+00  0.172E+00
  -3.731  0.182E+00  0.182E+00
  -3.721  0.191E+00  0.191E+00
  -3.711  0.198E+00  0.198E+00
  -3.701  0.204E+00  0.204E+00
  -3.691  0.209E+00  0.209E+00
  -3.681  0.212E+00  0.212E+00
  -3.671  0.214E+00  0.214E+00
  -3.661  0.214E+00  0.214E+00
  -3.651  0.214E+00  0.214E+00
  -3.641  0.211E+00  0.211E+00
  -3.631  0.208E+00  0.208E+00
  -3.621  0.203E+00  0.203E+00
  -3.611  0.198E+00  0.198E+00
  -3.601  0.191E+00  0.191E+00
  -3.591  0.184E+00  0.184E+00
  -3.581  0.175E+00  0.175E+00
  -3.571  0.167E+00  0.167E+00
  -3.561  0.158E+00  0.158E+00
  -3.551  0.149E+00  0.149E+00
  -3.541  0.139E+00  0.139E+00
  -3.531  0.129E+00  0.129E+00
  -3.521  0.120E+00  0.120E+00
  -3.511  0.111E+00  0.111E+00
  -3.501  0.102E+00  0.102E+00
  -3.491  0.930E-01  0.930E-01
  -3.481  0.850E-01  0.850E-01
  -3.471  0.776E-01  0.776E-01
  -3.461  0.709E-01  0.709E-01
  -3.451  0.651E-01  0.651E-01
  -3.441  0.600E-01  0.600E-01
  -3.431  0.559E-01  0.559E-01
  -3.421  0.528E-01  0.528E-01
  -3.411  0.505E-01  0.505E-01
  -3.401  0.491E-01  0.491E-01
  -3.391  0.485E-01  0.485E-01
  -3.381  0.487E-01  0.487E-01
  -3.371  0.496E-01  0.496E-01
  -3.361  0.510E-01  0.510E-01
  -3.351  0.529E-01  0.529E-01
  -3.341  0.550E-01  0.550E-01
  -3.331  0.574E-01  0.574E-01
  -3.321  0.598E-01  0.598E-01
  -3.311  0.622E-01  0.622E-01
  -3.301  0.644E-01  0.644E-01
  -3.291  0.663E-01  0.663E-01
  -3.281  0.679E-01  0.679E-01
  -3.271  0.692E-01  0.692E-01
  -3.261  0.701E-01  0.701E-01
  -3.251  0.706E-01  0.706E-01
  -3.241  0.707E-01  0.707E-01
  -3.231  0.706E-01  0.706E-01
  -3.221  0.703E-01  0.703E-01
  -3.211  0.697E-01  0.697E-01
  -3.201  0.691E-01  0.691E-01
  -3.191  0.685E-01  0.685E-01
  -3.181  0.679E-01  0.679E-01
  -3.171  0.674E-01  0.674E-01
  -3.161  0.671E-01  0.671E-01
  -3.151  0.669E-01  0.669E-01
  -3.141  0.668E-01  0.668E-01
  -3.131  0.669E-01  0.669E-01
  -3.121  0.671E-01  0.671E-01
  -3.111  0.674E-01  0.674E-01
  -3.101  0.676E-01  0.676E-01
  -3.091  0.678E-01  0.678E-01
  -3.081  0.679E-01  0.679E-01
  -3.071  0.680E-01  0.680E-01
  -3.061  0.678E-01  0.678E-01
  -3.051  0.675E-01  0.675E-01
  -3.041  0.671E-01  0.671E-01
  -3.031  0.665E-01  0.665E-01
  -3.021  0.659E-01  0.659E-01
  -3.011  0.652E-01  0.652E-01
  -3.001  0.646E-01  0.646E-01
  -2.991  0.640E-01  0.640E-01
  -2.981  0.636E-01  0.636E-01
  -2.971  0.633E-01  0.633E-01
  -2.961  0.633E-01  0.633E-01
  -2.951  0.635E-01  0.635E-01
  -2.941  0.639E-01  0.639E-01
  -2.931  0.644E-01  0.644E-01
  -2.921  0.652E-01  0.652E-01
  -2.911  0.660E-01  0.660E-01
  -2.901  0.668E-01  0.668E-01
  -2.891  0.676E-01  0.676E-01
  -2.881  0.681E-01  0.681E-01
  -2.871  0.685E-01  0.685E-01
  -2.861  0.685E-01  0.685E-01
  -2.851  0.681E-01  0.681E-01
  -2.841  0.672E-01  0.672E-01
  -2.831  0.659E-01  0.659E-01
  -2.821  0.640E-01  0.640E-01
  -2.811  0.617E-01  0.617E-01
  -2.801  0.590E-01  0.590E-01
  -2.791  0.559E-01  0.559E-01
  -2.781  0.525E-01  0.525E-01
  -2.771  0.488E-01  0.488E-01
  -2.761  0.451E-01  0.451E-01
  -2.751  0.413E-01  0.413E-01
  -2.741  0.376E-01  0.376E-01
  -2.731  0.340E-01  0.340E-01
  -2.721  0.308E-01  0.308E-01
  -2.711  0.279E-01  0.279E-01
  -2.701  0.255E-01  0.255E-01
  -2.691  0.237E-01  0.237E-01
  -2.681  0.225E-01  0.225E-01
  -2.671  0.220E-01  0.220E-01
  -2.661  0.223E-01  0.223E-01
  -2.651  0.235E-01  0.235E-01
  -2.641  0.255E-01  0.255E-01
  -2.631  0.286E-01  0.286E-01
  -2.621  0.328E-01  0.328E-01
  -2.611  0.380E-01  0.380E-01
  -2.601  0.444E-01  0.444E-01
  -2.591  0.521E-01  0.521E-01
  -2.581  0.610E-01  0.610E-01
  -2.571  0.711E-01  0.711E-01
  -2.561  0.826E-01  0.826E-01
  -2.551  0.953E-01  0.953E-01
  -2.541  0.109E+00  0.109E+00
  -2.531  0.124E+00  0.124E+00
  -2.521  0.140E+00  0.140E+00
  -2.511  0.157E+00  0.157E+00
  -2.501  0.175E+00  0.175E+00
  -2.491  0.194E+00  0.194E+00
  -2.481  0.213E+00  0.213E+00
  -2.471  0.232E+00  0.232E+00
  -2.461  0.251E+00  0.251E+00
  -2.451  0.269E+00  0.269E+00
  -2.441  0.287E+00  0.287E+00
  -2.431  0.304E+00  0.304E+00
  -2.421  0.320E+00  0.320E+00
  -2.411  0.335E+00  0.335E+00
  -2.401  0.349E+00  0.349E+00
  -2.391  0.360E+00  0.360E+00
  -2.381  0.370E+00  0.370E+00
  -2.371  0.378E+00  0.378E+00
  -2.361  0.384E+00  0.384E+00
  -2.351  0.387E+00  0.387E+00
  -2.341  0.389E+00  0.389E+00
  -2.331  0.389E+00  0.389E+00
  -2.321  0.387E+00  0.387E+00
  -2.311  0.383E+00  0.383E+00
  -2.301  0.377E+00  0.377E+00
  -2.291  0.371E+00  0.371E+00
  -2.281  0.363E+00  0.363E+00
  -2.271  0.353E+00  0.353E+00
  -2.261  0.344E+00  0.344E+00
  -2.251  0.333E+00  0.333E+00
  -2.241  0.322E+00  0.322E+00
  -2.231  0.310E+00  0.310E+00
  -2.221  0.299E+00  0.299E+00
  -2.211  0.287E+00  0.287E+00
  -2.201  0.275E+00  0.275E+00
  -2.191  0.263E+00  0.263E+00
  -2.181  0.252E+00  0.252E+00
  -2.171  0.240E+00  0.240E+00
  -2.161  0.229E+00  0.229E+00
  -2.151  0.218E+00  0.218E+00
  -2.141  0.207E+00  0.207E+00
  -2.131  0.197E+00  0.197E+00
  -2.121  0.186E+00  0.186E+00
  -2.111  0.176E+00  0.176E+00
  -2.101  0.167E+00  0.167E+00
  -2.091  0.157E+00  0.157E+00
  -2.081  0.149E+00  0.149E+00
  -2.071  0.140E+00  0.140E+00
  -2.061  0.133E+00  0.133E+00
  -2.051  0.125E+00  0.125E+00
  -2.041  0.119E+00  0.119E+00
  -2.031  0.113E+00  0.113E+00
  -2.021  0.108E+00  0.108E+00
  -2.011  0.103E+00  0.103E+00
  -2.001  0.986E-01  0.986E-01
  -1.991  0.950E-01  0.950E-01
  -1.981  0.920E-01  0.920E-01
  -1.971  0.895E-01  0.895E-01
  -1.961  0.874E-01  0.874E-01
  -1.951  0.858E-01  0.858E-01
  -1.941  0.847E-01  0.847E-01
  -1.931  0.840E-01  0.840E-01
  -1.921  0.838E-01  0.838E-01
  -1.911  0.840E-01  0.840E-01
  -1.901  0.847E-01  0.847E-01
  -1.891  0.858E-01  0.858E-01
  -1.881  0.874E-01  0.874E-01
  -1.871  0.893E-01  0.893E-01
  -1.861  0.917E-01  0.917E-01
  -1.851  0.944E-01  0.944E-01
  -1.841  0.974E-01  0.974E-01
  -1.831  0.100E+00  0.100E+00
  -1.821  0.104E+00  0.104E+00
  -1.811  0.107E+00  0.107E+00
  -1.801  0.110E+00  0.110E+00
  -1.791  0.112E+00  0.112E+00
  -1.781  0.114E+00  0.114E+00
  -1.771  0.116E+00  0.116E+00
  -1.761  0.116E+00  0.116E+00
  -1.751  0.116E+00  0.116E+00
  -1.741  0.116E+00  0.116E+00
  -1.731  0.114E+00  0.114E+00
  -1.721  0.112E+00  0.112E+00
  -1.711  0.109E+00  0.109E+00
  -1.701  0.106E+00  0.106E+00
  -1.691  0.103E+00  0.103E+00
  -1.681  0.986E-01  0.986E-01
  -1.671  0.945E-01  0.945E-01
  -1.661  0.905E-01  0.905E-01
  -1.651  0.866E-01  0.866E-01
  -1.641  0.829E-01  0.829E-01
  -1.631  0.795E-01  0.795E-01
  -1.621  0.765E-01  0.765E-01
  -1.611  0.740E-01  0.740E-01
  -1.601  0.718E-01  0.718E-01
  -1.591  0.700E-01  0.700E-01
  -1.581  0.685E-01  0.685E-01
  -1.571  0.673E-01  0.673E-01
  -1.561  0.663E-01  0.663E-01
  -1.551  0.654E-01  0.654E-01
  -1.541  0.645E-01  0.645E-01
  -1.531  0.637E-01  0.637E-01
  -1.521  0.627E-01  0.627E-01
  -1.511  0.617E-01  0.617E-01
  -1.501  0.606E-01  0.606E-01
  -1.491  0.595E-01  0.595E-01
  -1.481  0.582E-01  0.582E-01
  -1.471  0.570E-01  0.570E-01
  -1.461  0.559E-01  0.559E-01
  -1.451  0.549E-01  0.549E-01
  -1.441  0.541E-01  0.541E-01
  -1.431  0.535E-01  0.535E-01
  -1.421  0.533E-01  0.533E-01
  -1.411  0.534E-01  0.534E-01
  -1.401  0.540E-01  0.540E-01
  -1.391  0.549E-01  0.549E-01
  -1.381  0.563E-01  0.563E-01
  -1.371  0.581E-01  0.581E-01
  -1.361  0.603E-01  0.603E-01
  -1.351  0.628E-01  0.628E-01
  -1.341  0.655E-01  0.655E-01
  -1.331  0.686E-01  0.686E-01
  -1.321  0.719E-01  0.719E-01
  -1.311  0.753E-01  0.753E-01
  -1.301  0.789E-01  0.789E-01
  -1.291  0.826E-01  0.826E-01
  -1.281  0.865E-01  0.865E-01
  -1.271  0.905E-01  0.905E-01
  -1.261  0.947E-01  0.947E-01
  -1.251  0.991E-01  0.991E-01
  -1.241  0.104E+00  0.104E+00
  -1.231  0.109E+00  0.109E+00
  -1.221  0.114E+00  0.114E+00
  -1.211  0.119E+00  0.119E+00
  -1.201  0.125E+00  0.125E+00
  -1.191  0.132E+00  0.132E+00
  -1.181  0.138E+00  0.138E+00
  -1.171  0.146E+00  0.146E+00
  -1.161  0.153E+00  0.153E+00
  -1.151  0.161E+00  0.161E+00
  -1.141  0.169E+00  0.169E+00
  -1.131  0.177E+00  0.177E+00
  -1.121  0.186E+00  0.186E+00
  -1.111  0.195E+00  0.195E+00
  -1.101  0.203E+00  0.203E+00
  -1.091  0.212E+00  0.212E+00
  -1.081  0.220E+00  0.220E+00
  -1.071  0.229E+00  0.229E+00
  -1.061  0.237E+00  0.237E+00
  -1.051  0.245E+00  0.245E+00
  -1.041  0.253E+00  0.253E+00
  -1.031  0.260E+00  0.260E+00
  -1.021  0.268E+00  0.268E+00
  -1.011  0.274E+00  0.274E+00
  -1.001  0.281E+00  0.281E+00
  -0.991  0.287E+00  0.287E+00
  -0.981  0.293E+00  0.293E+00
  -0.971  0.297E+00  0.297E+00
  -0.961  0.302E+00  0.302E+00
  -0.951  0.305E+00  0.305E+00
  -0.941  0.308E+00  0.308E+00
  -0.931  0.309E+00  0.309E+00
  -0.921  0.309E+00  0.309E+00
  -0.911  0.308E+00  0.308E+00
  -0.901  0.306E+00  0.306E+00
  -0.891  0.302E+00  0.302E+00
  -0.881  0.297E+00  0.297E+00
  -0.871  0.290E+00  0.290E+00
  -0.861  0.281E+00  0.281E+00
  -0.851  0.271E+00  0.271E+00
  -0.841  0.260E+00  0.260E+00
  -0.831  0.248E+00  0.248E+00
  -0.821  0.235E+00  0.235E+00
  -0.811  0.221E+00  0.221E+00
  -0.801  0.207E+00  0.207E+00
  -0.791  0.192E+00  0.192E+00
  -0.781  0.177E+00  0.177E+00
  -0.771  0.163E+00  0.163E+00
  -0.761  0.149E+00  0.149E+00
  -0.751  0.136E+00  0.136E+00
  -0.741  0.124E+00  0.124E+00
  -0.731  0.112E+00  0.112E+00
  -0.721  0.101E+00  0.101E+00
  -0.711  0.918E-01  0.918E-01
  -0.701  0.832E-01  0.832E-01
  -0.691  0.757E-01  0.757E-01
  -0.681  0.693E-01  0.693E-01
  -0.671  0.638E-01  0.638E-01
  -0.661  0.592E-01  0.592E-01
  -0.651  0.555E-01  0.555E-01
  -0.641  0.526E-01  0.526E-01
  -0.631  0.505E-01  0.505E-01
  -0.621  0.489E-01  0.489E-01
  -0.611  0.480E-01  0.480E-01
  -0.601  0.475E-01  0.475E-01
  -0.591  0.474E-01  0.474E-01
  -0.581  0.477E-01  0.477E-01
  -0.571  0.481E-01  0.481E-01
  -0.561  0.487E-01  0.487E-01
  -0.551  0.494E-01  0.494E-01
  -0.541  0.501E-01  0.501E-01
  -0.531  0.507E-01  0.507E-01
  -0.521  0.511E-01  0.511E-01
  -0.511  0.514E-01  0.514E-01
  -0.501  0.515E-01  0.515E-01
  -0.491  0.515E-01  0.515E-01
  -0.481  0.512E-01  0.512E-01
  -0.471  0.507E-01  0.507E-01
  -0.461  0.501E-01  0.501E-01
  -0.451  0.494E-01  0.494E-01
  -0.441  0.487E-01  0.487E-01
  -0.431  0.481E-01  0.481E-01
  -0.421  0.475E-01  0.475E-01
  -0.411  0.471E-01  0.471E-01
  -0.401  0.468E-01  0.468E-01
  -0.391  0.469E-01  0.469E-01
  -0.381  0.472E-01  0.472E-01
  -0.371  0.477E-01  0.477E-01
  -0.361  0.486E-01  0.486E-01
  -0.351  0.497E-01  0.497E-01
  -0.341  0.510E-01  0.510E-01
  -0.331  0.525E-01  0.525E-01
  -0.321  0.541E-01  0.541E-01
  -0.311  0.558E-01  0.558E-01
  -0.301  0.575E-01  0.575E-01
  -0.291  0.592E-01  0.592E-01
  -0.281  0.608E-01  0.608E-01
  -0.271  0.623E-01  0.623E-01
  -0.261  0.638E-01  0.638E-01
  -0.251  0.652E-01  0.652E-01
  -0.241  0.665E-01  0.665E-01
  -0.231  0.677E-01  0.677E-01
  -0.221  0.689E-01  0.689E-01
  -0.211  0.701E-01  0.701E-01
  -0.201  0.712E-01  0.712E-01
  -0.191  0.724E-01  0.724E-01
  -0.181  0.736E-01  0.736E-01
  -0.171  0.749E-01  0.749E-01
  -0.161  0.761E-01  0.761E-01
  -0.151  0.772E-01  0.772E-01
  -0.141  0.782E-01  0.782E-01
  -0.131  0.790E-01  0.790E-01
  -0.121  0.796E-01  0.796E-01
  -0.111  0.799E-01  0.799E-01
  -0.101  0.798E-01  0.798E-01
  -0.091  0.792E-01  0.792E-01
  -0.081  0.782E-01  0.782E-01
  -0.071  0.766E-01  0.766E-01
  -0.061  0.744E-01  0.744E-01
  -0.051  0.718E-01  0.718E-01
  -0.041  0.686E-01  0.686E-01
  -0.031  0.651E-01  0.651E-01
  -0.021  0.611E-01  0.611E-01
  -0.011  0.568E-01  0.568E-01
  -0.001  0.523E-01  0.523E-01
   0.009  0.477E-01  0.477E-01
   0.019  0.431E-01  0.431E-01
   0.029  0.385E-01  0.385E-01
   0.039  0.341E-01  0.341E-01
   0.049  0.299E-01  0.299E-01
   0.059  0.259E-01  0.259E-01
   0.069  0.222E-01  0.222E-01
   0.079  0.189E-01  0.189E-01
   0.089  0.160E-01  0.160E-01
   0.099  0.133E-01  0.133E-01
   0.109  0.111E-01  0.111E-01
   0.119  0.921E-02  0.921E-02
   0.129  0.766E-02  0.766E-02
