# E (eV)   ldos(E)   pdos(E)   
  -5.898  0.409E-04  0.409E-04
  -5.888  0.639E-04  0.639E-04
  -5.878  0.987E-04  0.987E-04
  -5.868  0.151E-03  0.151E-03
  -5.858  0.228E-03  0.228E-03
  -5.848  0.342E-03  0.342E-03
  -5.838  0.506E-03  0.506E-03
  -5.828  0.742E-03  0.742E-03
  -5.818  0.108E-02  0.108E-02
  -5.808  0.154E-02  0.154E-02
  -5.798  0.219E-02  0.219E-02
  -5.788  0.308E-02  0.308E-02
  -5.778  0.429E-02  0.429E-02
  -5.768  0.590E-02  0.590E-02
  -5.758  0.804E-02  0.804E-02
  -5.748  0.108E-01  0.108E-01
  -5.738  0.145E-01  0.145E-01
  -5.728  0.191E-01  0.191E-01
  -5.718  0.250E-01  0.250E-01
  -5.708  0.323E-01  0.323E-01
  -5.698  0.414E-01  0.414E-01
  -5.688  0.524E-01  0.524E-01
  -5.678  0.658E-01  0.658E-01
  -5.668  0.817E-01  0.817E-01
  -5.658  0.101E+00  0.101E+00
  -5.648  0.122E+00  0.122E+00
  -5.638  0.147E+00  0.147E+00
  -5.628  0.176E+00  0.176E+00
  -5.618  0.208E+00  0.208E+00
  -5.608  0.243E+00  0.243E+00
  -5.598  0.282E+00  0.282E+00
  -5.588  0.324E+00  0.324E+00
  -5.578  0.368E+00  0.368E+00
  -5.568  0.415E+00  0.415E+00
  -5.558  0.463E+00  0.463E+00
  -5.548  0.511E+00  0.511E+00
  -5.538  0.560E+00  0.560E+00
  -5.528  0.608E+00  0.608E+00
  -5.518  0.655E+00  0.655E+00
  -5.508  0.699E+00  0.699E+00
  -5.498  0.739E+00  0.739E+00
  -5.488  0.776E+00  0.776E+00
  -5.478  0.808E+00  0.808E+00
  -5.468  0.835E+00  0.835E+00
  -5.458  0.856E+00  0.856E+00
  -5.448  0.872E+00  0.872E+00
  -5.438  0.882E+00  0.882E+00
  -5.428  0.886E+00  0.886E+00
  -5.418  0.885E+00  0.885E+00
  -5.408  0.879E+00  0.879E+00
  -5.398  0.869E+00  0.869E+00
  -5.388  0.855E+00  0.855E+00
  -5.378  0.837E+00  0.837E+00
  -5.368  0.817E+00  0.817E+00
  -5.358  0.794E+00  0.794E+00
  -5.348  0.770E+00  0.770E+00
  -5.338  0.746E+00  0.746E+00
  -5.328  0.721E+00  0.721E+00
  -5.318  0.696E+00  0.696E+00
  -5.308  0.671E+00  0.671E+00
  -5.298  0.647E+00  0.647E+00
  -5.288  0.624E+00  0.624E+00
  -5.278  0.602E+00  0.602E+00
  -5.268  0.581E+00  0.581E+00
  -5.258  0.562E+00  0.562E+00
  -5.248  0.543E+00  0.543E+00
  -5.238  0.526E+00  0.526E+00
  -5.228  0.510E+00  0.510E+00
  -5.218  0.496E+00  0.496E+00
  -5.208  0.482E+00  0.482E+00
  -5.198  0.469E+00  0.469E+00
  -5.188  0.458E+00  0.458E+00
  -5.178  0.447E+00  0.447E+00
  -5.168  0.436E+00  0.436E+00
  -5.158  0.427E+00  0.427E+00
  -5.148  0.418E+00  0.418E+00
  -5.138  0.409E+00  0.409E+00
  -5.128  0.401E+00  0.401E+00
  -5.118  0.394E+00  0.394E+00
  -5.108  0.387E+00  0.387E+00
  -5.098  0.380E+00  0.380E+00
  -5.088  0.373E+00  0.373E+00
  -5.078  0.367E+00  0.367E+00
  -5.068  0.361E+00  0.361E+00
  -5.058  0.356E+00  0.356E+00
  -5.048  0.350E+00  0.350E+00
  -5.038  0.345E+00  0.345E+00
  -5.028  0.340E+00  0.340E+00
  -5.018  0.336E+00  0.336E+00
  -5.008  0.331E+00  0.331E+00
  -4.998  0.327E+00  0.327E+00
  -4.988  0.322E+00  0.322E+00
  -4.978  0.318E+00  0.318E+00
  -4.968  0.314E+00  0.314E+00
  -4.958  0.311E+00  0.311E+00
  -4.948  0.307E+00  0.307E+00
  -4.938  0.303E+00  0.303E+00
  -4.928  0.300E+00  0.300E+00
  -4.918  0.297E+00  0.297E+00
  -4.908  0.293E+00  0.293E+00
  -4.898  0.290E+00  0.290E+00
  -4.888  0.287E+00  0.287E+00
  -4.878  0.284E+00  0.284E+00
  -4.868  0.281E+00  0.281E+00
  -4.858  0.279E+00  0.279E+00
  -4.848  0.276E+00  0.276E+00
  -4.838  0.273E+00  0.273E+00
  -4.828  0.271E+00  0.271E+00
  -4.818  0.268E+00  0.268E+00
  -4.808  0.266E+00  0.266E+00
  -4.798  0.263E+00  0.263E+00
  -4.788  0.261E+00  0.261E+00
  -4.778  0.259E+00  0.259E+00
  -4.768  0.257E+00  0.257E+00
  -4.758  0.255E+00  0.255E+00
  -4.748  0.253E+00  0.253E+00
  -4.738  0.251E+00  0.251E+00
  -4.728  0.249E+00  0.249E+00
  -4.718  0.247E+00  0.247E+00
  -4.708  0.245E+00  0.245E+00
  -4.698  0.243E+00  0.243E+00
  -4.688  0.241E+00  0.241E+00
  -4.678  0.239E+00  0.239E+00
  -4.668  0.238E+00  0.238E+00
  -4.658  0.236E+00  0.236E+00
  -4.648  0.235E+00  0.235E+00
  -4.638  0.233E+00  0.233E+00
  -4.628  0.231E+00  0.231E+00
  -4.618  0.230E+00  0.230E+00
  -4.608  0.228E+00  0.228E+00
  -4.598  0.227E+00  0.227E+00
  -4.588  0.226E+00  0.226E+00
  -4.578  0.224E+00  0.224E+00
  -4.568  0.223E+00  0.223E+00
  -4.558  0.222E+00  0.222E+00
  -4.548  0.220E+00  0.220E+00
  -4.538  0.219E+00  0.219E+00
  -4.528  0.218E+00  0.218E+00
  -4.518  0.217E+00  0.217E+00
  -4.508  0.215E+00  0.215E+00
  -4.498  0.214E+00  0.214E+00
  -4.488  0.213E+00  0.213E+00
  -4.478  0.212E+00  0.212E+00
  -4.468  0.211E+00  0.211E+00
  -4.458  0.210E+00  0.210E+00
  -4.448  0.209E+00  0.209E+00
  -4.438  0.208E+00  0.208E+00
  -4.428  0.207E+00  0.207E+00
  -4.418  0.206E+00  0.206E+00
  -4.408  0.205E+00  0.205E+00
  -4.398  0.204E+00  0.204E+00
  -4.388  0.203E+00  0.203E+00
  -4.378  0.203E+00  0.203E+00
  -4.368  0.202E+00  0.202E+00
  -4.358  0.201E+00  0.201E+00
  -4.348  0.200E+00  0.200E+00
  -4.338  0.199E+00  0.199E+00
  -4.328  0.199E+00  0.199E+00
  -4.318  0.198E+00  0.198E+00
  -4.308  0.197E+00  0.197E+00
  -4.298  0.196E+00  0.196E+00
  -4.288  0.196E+00  0.196E+00
  -4.278  0.195E+00  0.195E+00
  -4.268  0.194E+00  0.194E+00
  -4.258  0.194E+00  0.194E+00
  -4.248  0.193E+00  0.193E+00
  -4.238  0.193E+00  0.193E+00
  -4.228  0.192E+00  0.192E+00
  -4.218  0.191E+00  0.191E+00
  -4.208  0.191E+00  0.191E+00
  -4.198  0.190E+00  0.190E+00
  -4.188  0.190E+00  0.190E+00
  -4.178  0.189E+00  0.189E+00
  -4.168  0.189E+00  0.189E+00
  -4.158  0.188E+00  0.188E+00
  -4.148  0.188E+00  0.188E+00
  -4.138  0.187E+00  0.187E+00
  -4.128  0.187E+00  0.187E+00
  -4.118  0.187E+00  0.187E+00
  -4.108  0.186E+00  0.186E+00
  -4.098  0.186E+00  0.186E+00
  -4.088  0.186E+00  0.186E+00
  -4.078  0.185E+00  0.185E+00
  -4.068  0.185E+00  0.185E+00
  -4.058  0.185E+00  0.185E+00
  -4.048  0.184E+00  0.184E+00
  -4.038  0.184E+00  0.184E+00
  -4.028  0.184E+00  0.184E+00
  -4.018  0.184E+00  0.184E+00
  -4.008  0.183E+00  0.183E+00
  -3.998  0.183E+00  0.183E+00
  -3.988  0.183E+00  0.183E+00
  -3.978  0.183E+00  0.183E+00
  -3.968  0.183E+00  0.183E+00
  -3.958  0.183E+00  0.183E+00
  -3.948  0.183E+00  0.183E+00
  -3.938  0.182E+00  0.182E+00
  -3.928  0.182E+00  0.182E+00
  -3.918  0.182E+00  0.182E+00
  -3.908  0.182E+00  0.182E+00
  -3.898  0.182E+00  0.182E+00
  -3.888  0.182E+00  0.182E+00
  -3.878  0.182E+00  0.182E+00
  -3.868  0.182E+00  0.182E+00
  -3.858  0.182E+00  0.182E+00
  -3.848  0.183E+00  0.183E+00
  -3.838  0.183E+00  0.183E+00
  -3.828  0.183E+00  0.183E+00
  -3.818  0.183E+00  0.183E+00
  -3.808  0.183E+00  0.183E+00
  -3.798  0.183E+00  0.183E+00
  -3.788  0.184E+00  0.184E+00
  -3.778  0.184E+00  0.184E+00
  -3.768  0.184E+00  0.184E+00
  -3.758  0.185E+00  0.185E+00
  -3.748  0.185E+00  0.185E+00
  -3.738  0.185E+00  0.185E+00
  -3.728  0.186E+00  0.186E+00
  -3.718  0.186E+00  0.186E+00
  -3.708  0.187E+00  0.187E+00
  -3.698  0.187E+00  0.187E+00
  -3.688  0.188E+00  0.188E+00
  -3.678  0.188E+00  0.188E+00
  -3.668  0.189E+00  0.189E+00
  -3.658  0.190E+00  0.190E+00
  -3.648  0.190E+00  0.190E+00
  -3.638  0.191E+00  0.191E+00
  -3.628  0.192E+00  0.192E+00
  -3.618  0.193E+00  0.193E+00
  -3.608  0.194E+00  0.194E+00
  -3.598  0.195E+00  0.195E+00
  -3.588  0.196E+00  0.196E+00
  -3.578  0.197E+00  0.197E+00
  -3.568  0.198E+00  0.198E+00
  -3.558  0.199E+00  0.199E+00
  -3.548  0.201E+00  0.201E+00
  -3.538  0.202E+00  0.202E+00
  -3.528  0.204E+00  0.204E+00
  -3.518  0.206E+00  0.206E+00
  -3.508  0.207E+00  0.207E+00
  -3.498  0.209E+00  0.209E+00
  -3.488  0.212E+00  0.212E+00
  -3.478  0.214E+00  0.214E+00
  -3.468  0.216E+00  0.216E+00
  -3.458  0.219E+00  0.219E+00
  -3.448  0.222E+00  0.222E+00
  -3.438  0.225E+00  0.225E+00
  -3.428  0.229E+00  0.229E+00
  -3.418  0.232E+00  0.232E+00
  -3.408  0.237E+00  0.237E+00
  -3.398  0.241E+00  0.241E+00
  -3.388  0.246E+00  0.246E+00
  -3.378  0.251E+00  0.251E+00
  -3.368  0.257E+00  0.257E+00
  -3.358  0.264E+00  0.264E+00
  -3.348  0.270E+00  0.270E+00
  -3.338  0.278E+00  0.278E+00
  -3.328  0.285E+00  0.285E+00
  -3.318  0.293E+00  0.293E+00
  -3.308  0.301E+00  0.301E+00
  -3.298  0.310E+00  0.310E+00
  -3.288  0.318E+00  0.318E+00
  -3.278  0.326E+00  0.326E+00
  -3.268  0.334E+00  0.334E+00
  -3.258  0.341E+00  0.341E+00
  -3.248  0.348E+00  0.348E+00
  -3.238  0.353E+00  0.353E+00
  -3.228  0.357E+00  0.357E+00
  -3.218  0.360E+00  0.360E+00
  -3.208  0.361E+00  0.361E+00
  -3.198  0.360E+00  0.360E+00
  -3.188  0.357E+00  0.357E+00
  -3.178  0.351E+00  0.351E+00
  -3.168  0.344E+00  0.344E+00
  -3.158  0.334E+00  0.334E+00
  -3.148  0.323E+00  0.323E+00
  -3.138  0.309E+00  0.309E+00
  -3.128  0.294E+00  0.294E+00
  -3.118  0.277E+00  0.277E+00
  -3.108  0.259E+00  0.259E+00
  -3.098  0.240E+00  0.240E+00
  -3.088  0.221E+00  0.221E+00
  -3.078  0.201E+00  0.201E+00
  -3.068  0.181E+00  0.181E+00
  -3.058  0.162E+00  0.162E+00
  -3.048  0.144E+00  0.144E+00
  -3.038  0.126E+00  0.126E+00
  -3.028  0.110E+00  0.110E+00
  -3.018  0.945E-01  0.945E-01
  -3.008  0.806E-01  0.806E-01
  -2.998  0.681E-01  0.681E-01
  -2.988  0.569E-01  0.569E-01
  -2.978  0.472E-01  0.472E-01
  -2.968  0.387E-01  0.387E-01
  -2.958  0.314E-01  0.314E-01
  -2.948  0.252E-01  0.252E-01
  -2.938  0.201E-01  0.201E-01
  -2.928  0.158E-01  0.158E-01
  -2.918  0.123E-01  0.123E-01
  -2.908  0.950E-02  0.950E-02
  -2.898  0.725E-02  0.725E-02
  -2.888  0.548E-02  0.548E-02
  -2.878  0.410E-02  0.410E-02
  -2.868  0.304E-02  0.304E-02
  -2.858  0.222E-02  0.222E-02
  -2.848  0.161E-02  0.161E-02
  -2.838  0.116E-02  0.116E-02
  -2.828  0.822E-03  0.822E-03
  -2.818  0.578E-03  0.578E-03
  -2.808  0.402E-03  0.402E-03
  -2.798  0.276E-03  0.276E-03
  -2.788  0.188E-03  0.188E-03
  -2.778  0.127E-03  0.127E-03
  -2.768  0.846E-04  0.846E-04
  -2.758  0.558E-04  0.558E-04
  -2.748  0.364E-04  0.364E-04
  -2.738  0.235E-04  0.235E-04
  -2.728  0.150E-04  0.150E-04
  -2.718  0.951E-05  0.951E-05
  -2.708  0.595E-05  0.595E-05
  -2.698  0.368E-05  0.368E-05
  -2.688  0.226E-05  0.226E-05
  -2.678  0.137E-05  0.137E-05
  -2.668  0.820E-06  0.820E-06
  -2.658  0.487E-06  0.487E-06
  -2.648  0.286E-06  0.286E-06
  -2.638  0.166E-06  0.166E-06
  -2.628  0.954E-07  0.954E-07
  -2.618  0.543E-07  0.543E-07
  -2.608  0.305E-07  0.305E-07
  -2.598  0.170E-07  0.170E-07
  -2.588  0.936E-08  0.936E-08
  -2.578  0.510E-08  0.510E-08
  -2.568  0.275E-08  0.275E-08
  -2.558  0.147E-08  0.147E-08
  -2.548  0.774E-09  0.774E-09
  -2.538  0.404E-09  0.404E-09
  -2.528  0.208E-09  0.208E-09
  -2.518  0.107E-09  0.107E-09
  -2.508  0.539E-10  0.539E-10
  -2.498  0.269E-10  0.269E-10
  -2.488  0.132E-10  0.132E-10
  -2.478  0.646E-11  0.646E-11
  -2.468  0.284E-11  0.284E-11
  -2.458  0.137E-11  0.137E-11
  -2.448  0.398E-12  0.398E-12
  -2.438  0.000E+00  0.000E+00
  -2.428  0.000E+00  0.000E+00
  -2.418  0.000E+00  0.000E+00
  -2.408  0.000E+00  0.000E+00
  -2.398  0.000E+00  0.000E+00
  -2.388  0.000E+00  0.000E+00
  -2.378  0.000E+00  0.000E+00
  -2.368  0.000E+00  0.000E+00
  -2.358  0.000E+00  0.000E+00
  -2.348  0.000E+00  0.000E+00
  -2.338  0.000E+00  0.000E+00
  -2.328  0.000E+00  0.000E+00
  -2.318  0.000E+00  0.000E+00
  -2.308  0.000E+00  0.000E+00
  -2.298  0.000E+00  0.000E+00
  -2.288  0.000E+00  0.000E+00
  -2.278  0.000E+00  0.000E+00
  -2.268  0.000E+00  0.000E+00
  -2.258  0.000E+00  0.000E+00
  -2.248  0.000E+00  0.000E+00
  -2.238  0.000E+00  0.000E+00
  -2.228  0.000E+00  0.000E+00
  -2.218  0.000E+00  0.000E+00
  -2.208  0.000E+00  0.000E+00
  -2.198  0.000E+00  0.000E+00
  -2.188  0.000E+00  0.000E+00
  -2.178  0.000E+00  0.000E+00
  -2.168  0.000E+00  0.000E+00
  -2.158  0.000E+00  0.000E+00
  -2.148  0.000E+00  0.000E+00
  -2.138  0.000E+00  0.000E+00
  -2.128  0.000E+00  0.000E+00
  -2.118  0.000E+00  0.000E+00
  -2.108  0.000E+00  0.000E+00
  -2.098  0.000E+00  0.000E+00
  -2.088  0.000E+00  0.000E+00
  -2.078  0.000E+00  0.000E+00
  -2.068  0.000E+00  0.000E+00
  -2.058  0.000E+00  0.000E+00
  -2.048  0.000E+00  0.000E+00
  -2.038  0.000E+00  0.000E+00
  -2.028  0.000E+00  0.000E+00
  -2.018  0.000E+00  0.000E+00
  -2.008  0.000E+00  0.000E+00
  -1.998  0.000E+00  0.000E+00
  -1.988  0.000E+00  0.000E+00
  -1.978  0.000E+00  0.000E+00
  -1.968  0.000E+00  0.000E+00
  -1.958  0.000E+00  0.000E+00
  -1.948  0.000E+00  0.000E+00
  -1.938  0.000E+00  0.000E+00
  -1.928  0.000E+00  0.000E+00
  -1.918  0.000E+00  0.000E+00
  -1.908  0.000E+00  0.000E+00
  -1.898  0.000E+00  0.000E+00
  -1.888  0.000E+00  0.000E+00
  -1.878  0.000E+00  0.000E+00
  -1.868  0.000E+00  0.000E+00
  -1.858  0.000E+00  0.000E+00
  -1.848  0.000E+00  0.000E+00
  -1.838  0.000E+00  0.000E+00
  -1.828  0.000E+00  0.000E+00
  -1.818  0.000E+00  0.000E+00
  -1.808  0.000E+00  0.000E+00
  -1.798  0.000E+00  0.000E+00
  -1.788  0.000E+00  0.000E+00
  -1.778  0.000E+00  0.000E+00
  -1.768  0.000E+00  0.000E+00
  -1.758  0.000E+00  0.000E+00
  -1.748  0.000E+00  0.000E+00
  -1.738  0.000E+00  0.000E+00
  -1.728  0.000E+00  0.000E+00
  -1.718  0.000E+00  0.000E+00
  -1.708  0.000E+00  0.000E+00
  -1.698  0.000E+00  0.000E+00
  -1.688  0.000E+00  0.000E+00
  -1.678  0.000E+00  0.000E+00
  -1.668  0.000E+00  0.000E+00
  -1.658  0.000E+00  0.000E+00
  -1.648  0.000E+00  0.000E+00
  -1.638  0.000E+00  0.000E+00
  -1.628  0.000E+00  0.000E+00
  -1.618  0.000E+00  0.000E+00
  -1.608  0.000E+00  0.000E+00
  -1.598  0.000E+00  0.000E+00
  -1.588  0.000E+00  0.000E+00
  -1.578  0.000E+00  0.000E+00
  -1.568  0.000E+00  0.000E+00
  -1.558  0.000E+00  0.000E+00
  -1.548  0.000E+00  0.000E+00
  -1.538  0.000E+00  0.000E+00
  -1.528  0.000E+00  0.000E+00
  -1.518  0.000E+00  0.000E+00
  -1.508  0.000E+00  0.000E+00
  -1.498  0.000E+00  0.000E+00
  -1.488  0.000E+00  0.000E+00
  -1.478  0.000E+00  0.000E+00
  -1.468  0.000E+00  0.000E+00
  -1.458  0.000E+00  0.000E+00
  -1.448  0.000E+00  0.000E+00
  -1.438  0.000E+00  0.000E+00
  -1.428  0.000E+00  0.000E+00
  -1.418  0.000E+00  0.000E+00
  -1.408  0.000E+00  0.000E+00
  -1.398  0.000E+00  0.000E+00
  -1.388  0.000E+00  0.000E+00
  -1.378  0.000E+00  0.000E+00
  -1.368  0.000E+00  0.000E+00
  -1.358  0.000E+00  0.000E+00
  -1.348  0.000E+00  0.000E+00
  -1.338  0.000E+00  0.000E+00
  -1.328  0.000E+00  0.000E+00
  -1.318  0.000E+00  0.000E+00
  -1.308  0.000E+00  0.000E+00
  -1.298  0.000E+00  0.000E+00
  -1.288  0.000E+00  0.000E+00
  -1.278  0.000E+00  0.000E+00
  -1.268  0.000E+00  0.000E+00
  -1.258  0.000E+00  0.000E+00
  -1.248  0.000E+00  0.000E+00
  -1.238  0.000E+00  0.000E+00
  -1.228  0.000E+00  0.000E+00
  -1.218  0.000E+00  0.000E+00
  -1.208  0.000E+00  0.000E+00
  -1.198  0.157E-12  0.157E-12
  -1.188  0.502E-12  0.502E-12
  -1.178  0.104E-11  0.104E-11
  -1.168  0.225E-11  0.225E-11
  -1.158  0.457E-11  0.457E-11
  -1.148  0.919E-11  0.919E-11
  -1.138  0.183E-10  0.183E-10
  -1.128  0.361E-10  0.361E-10
  -1.118  0.704E-10  0.704E-10
  -1.108  0.136E-09  0.136E-09
  -1.098  0.259E-09  0.259E-09
  -1.088  0.488E-09  0.488E-09
  -1.078  0.911E-09  0.911E-09
  -1.068  0.168E-08  0.168E-08
  -1.058  0.307E-08  0.307E-08
  -1.048  0.556E-08  0.556E-08
  -1.038  0.994E-08  0.994E-08
  -1.028  0.176E-07  0.176E-07
  -1.018  0.308E-07  0.308E-07
  -1.008  0.534E-07  0.534E-07
  -0.998  0.914E-07  0.914E-07
  -0.988  0.155E-06  0.155E-06
  -0.978  0.260E-06  0.260E-06
  -0.968  0.432E-06  0.432E-06
  -0.958  0.709E-06  0.709E-06
  -0.948  0.115E-05  0.115E-05
  -0.938  0.185E-05  0.185E-05
  -0.928  0.295E-05  0.295E-05
  -0.918  0.464E-05  0.464E-05
  -0.908  0.723E-05  0.723E-05
  -0.898  0.111E-04  0.111E-04
  -0.888  0.170E-04  0.170E-04
  -0.878  0.257E-04  0.257E-04
  -0.868  0.383E-04  0.383E-04
  -0.858  0.566E-04  0.566E-04
  -0.848  0.828E-04  0.828E-04
  -0.838  0.120E-03  0.120E-03
  -0.828  0.171E-03  0.171E-03
  -0.818  0.243E-03  0.243E-03
  -0.808  0.340E-03  0.340E-03
  -0.798  0.472E-03  0.472E-03
  -0.788  0.649E-03  0.649E-03
  -0.778  0.881E-03  0.881E-03
  -0.768  0.119E-02  0.119E-02
  -0.758  0.158E-02  0.158E-02
  -0.748  0.208E-02  0.208E-02
  -0.738  0.271E-02  0.271E-02
  -0.728  0.350E-02  0.350E-02
  -0.718  0.447E-02  0.447E-02
  -0.708  0.565E-02  0.565E-02
  -0.698  0.707E-02  0.707E-02
  -0.688  0.876E-02  0.876E-02
  -0.678  0.107E-01  0.107E-01
  -0.668  0.131E-01  0.131E-01
  -0.658  0.157E-01  0.157E-01
  -0.648  0.187E-01  0.187E-01
  -0.638  0.220E-01  0.220E-01
  -0.628  0.257E-01  0.257E-01
  -0.618  0.297E-01  0.297E-01
  -0.608  0.341E-01  0.341E-01
  -0.598  0.386E-01  0.386E-01
  -0.588  0.434E-01  0.434E-01
  -0.578  0.484E-01  0.484E-01
  -0.568  0.534E-01  0.534E-01
  -0.558  0.584E-01  0.584E-01
  -0.548  0.633E-01  0.633E-01
  -0.538  0.680E-01  0.680E-01
  -0.528  0.725E-01  0.725E-01
  -0.518  0.766E-01  0.766E-01
  -0.508  0.804E-01  0.804E-01
  -0.498  0.836E-01  0.836E-01
  -0.488  0.864E-01  0.864E-01
  -0.478  0.886E-01  0.886E-01
  -0.468  0.903E-01  0.903E-01
  -0.458  0.914E-01  0.914E-01
  -0.448  0.920E-01  0.920E-01
  -0.438  0.921E-01  0.921E-01
  -0.428  0.917E-01  0.917E-01
  -0.418  0.909E-01  0.909E-01
  -0.408  0.897E-01  0.897E-01
  -0.398  0.882E-01  0.882E-01
  -0.388  0.865E-01  0.865E-01
  -0.378  0.846E-01  0.846E-01
  -0.368  0.826E-01  0.826E-01
  -0.358  0.806E-01  0.806E-01
  -0.348  0.785E-01  0.785E-01
  -0.338  0.764E-01  0.764E-01
  -0.328  0.744E-01  0.744E-01
  -0.318  0.724E-01  0.724E-01
  -0.308  0.705E-01  0.705E-01
  -0.298  0.688E-01  0.688E-01
  -0.288  0.671E-01  0.671E-01
  -0.278  0.656E-01  0.656E-01
  -0.268  0.642E-01  0.642E-01
  -0.258  0.629E-01  0.629E-01
  -0.248  0.616E-01  0.616E-01
  -0.238  0.605E-01  0.605E-01
  -0.228  0.595E-01  0.595E-01
  -0.218  0.586E-01  0.586E-01
  -0.208  0.577E-01  0.577E-01
  -0.198  0.569E-01  0.569E-01
  -0.188  0.562E-01  0.562E-01
  -0.178  0.555E-01  0.555E-01
  -0.168  0.549E-01  0.549E-01
  -0.158  0.543E-01  0.543E-01
  -0.148  0.538E-01  0.538E-01
  -0.138  0.533E-01  0.533E-01
  -0.128  0.528E-01  0.528E-01
  -0.118  0.523E-01  0.523E-01
  -0.108  0.519E-01  0.519E-01
  -0.098  0.515E-01  0.515E-01
  -0.088  0.511E-01  0.511E-01
  -0.078  0.507E-01  0.507E-01
  -0.068  0.504E-01  0.504E-01
  -0.058  0.500E-01  0.500E-01
  -0.048  0.497E-01  0.497E-01
  -0.038  0.494E-01  0.494E-01
  -0.028  0.491E-01  0.491E-01
  -0.018  0.488E-01  0.488E-01
  -0.008  0.486E-01  0.486E-01
   0.002  0.483E-01  0.483E-01
   0.012  0.480E-01  0.480E-01
   0.022  0.478E-01  0.478E-01
   0.032  0.476E-01  0.476E-01
   0.042  0.473E-01  0.473E-01
   0.052  0.471E-01  0.471E-01
   0.062  0.469E-01  0.469E-01
   0.072  0.467E-01  0.467E-01
   0.082  0.465E-01  0.465E-01
   0.092  0.463E-01  0.463E-01
   0.102  0.461E-01  0.461E-01
   0.112  0.459E-01  0.459E-01
   0.122  0.457E-01  0.457E-01
   0.132  0.455E-01  0.455E-01
   0.142  0.454E-01  0.454E-01
   0.152  0.452E-01  0.452E-01
   0.162  0.450E-01  0.450E-01
   0.172  0.449E-01  0.449E-01
   0.182  0.447E-01  0.447E-01
   0.192  0.446E-01  0.446E-01
   0.202  0.444E-01  0.444E-01
   0.212  0.443E-01  0.443E-01
   0.222  0.442E-01  0.442E-01
   0.232  0.440E-01  0.440E-01
   0.242  0.439E-01  0.439E-01
   0.252  0.437E-01  0.437E-01
   0.262  0.436E-01  0.436E-01
   0.272  0.435E-01  0.435E-01
   0.282  0.434E-01  0.434E-01
   0.292  0.433E-01  0.433E-01
   0.302  0.431E-01  0.431E-01
   0.312  0.430E-01  0.430E-01
   0.322  0.429E-01  0.429E-01
   0.332  0.428E-01  0.428E-01
   0.342  0.427E-01  0.427E-01
   0.352  0.426E-01  0.426E-01
   0.362  0.425E-01  0.425E-01
   0.372  0.424E-01  0.424E-01
   0.382  0.422E-01  0.422E-01
   0.392  0.421E-01  0.421E-01
   0.402  0.420E-01  0.420E-01
   0.412  0.419E-01  0.419E-01
   0.422  0.418E-01  0.418E-01
   0.432  0.418E-01  0.418E-01
   0.442  0.417E-01  0.417E-01
   0.452  0.416E-01  0.416E-01
   0.462  0.415E-01  0.415E-01
   0.472  0.414E-01  0.414E-01
   0.482  0.413E-01  0.413E-01
   0.492  0.412E-01  0.412E-01
   0.502  0.411E-01  0.411E-01
   0.512  0.410E-01  0.410E-01
   0.522  0.409E-01  0.409E-01
   0.532  0.409E-01  0.409E-01
